SLC Damping Ring Gated camera results.  10 e+ verical profiles at I=1.75mA.  
The distance beteeen each pixel on the gated camera is 1 micron.  
Pixel    Pic1(Counts) Pic2(Counts) Pic3(Counts) Pic4(Counts) Pic5(Counts) Pic6(Counts) Pic7(Counts) Pic8(Counts) Pic9(Counts) Pic10(Counts)
  1      186.58425    179.92585    190.23179    176.94996    184.41756    184.75342    183.39768    182.77933    188.46362    181.20236   
  2      182.07671    182.68295    176.39816    184.73696    180.98321    191.67991    181.79660    188.19082    175.53542    192.45244   
  3      187.69802    187.86760    186.15074    195.04561    193.48296    193.35863    179.96813    182.99218    189.06661    191.96016   
  4      188.61570    188.99591    198.17635    188.45097    188.09270    187.22419    189.08051    187.30799    190.69617    192.85458   
  5      187.68245    195.58189    202.31561    185.20556    204.15168    203.40842    187.75981    199.67776    190.65661    192.38574   
  6      200.09390    204.33171    202.55964    202.68083    201.79984    197.00988    193.45041    195.52812    198.87280    192.09919   
  7      198.54545    196.47795    193.92433    204.08963    197.82431    195.47059    204.16919    206.94224    208.64703    209.05718   
  8      197.08061    200.96202    188.87511    205.85511    197.68683    205.51022    211.86422    201.05377    202.14043    203.24924   
  9      207.58126    200.05678    204.13445    202.98448    211.94027    206.00163    205.42442    211.30917    205.07250    200.57992   
 10      216.94198    203.76698    199.75490    214.25224    198.24058    201.50023    208.36847    204.48989    203.44759    204.31293   
 11      224.98497    203.21589    210.38300    212.10808    205.83215    204.93804    210.77566    210.96759    217.64984    218.63429   
 12      214.00171    214.01564    219.02716    212.10641    211.81804    207.82289    208.34660    226.17470    218.67390    204.90437   
 13      208.52033    216.98320    222.42920    213.58232    218.89795    203.18016    209.64098    219.70486    212.86130    227.98456   
 14      219.80617    216.35058    221.83929    211.74374    216.71724    229.00592    228.78328    215.46217    226.87808    215.68990   
 15      223.60411    227.08549    223.97123    229.69545    216.12028    225.16224    232.11699    237.08212    219.97747    235.80663   
 16      230.28834    231.98713    238.62599    219.16443    230.07186    222.73553    245.03749    220.67302    221.71206    210.85563   
 17      234.17272    230.37222    245.64618    227.11351    230.48193    227.62405    224.48406    226.48519    232.53127    230.54047   
 18      246.79944    240.60070    233.30363    225.07919    250.07285    242.31764    251.75865    221.06687    244.70869    237.27011   
 19      240.56037    233.57859    244.31952    242.83602    239.16486    245.48732    240.96054    242.24808    249.84661    247.78775   
 20      240.81063    247.70752    242.92748    234.29707    249.39260    265.97235    264.28723    245.25791    248.74031    243.88622   
 21      260.86105    253.70688    238.23150    256.75730    247.51425    253.46108    248.53345    262.58566    261.11206    247.50058   
 22      257.52798    250.44046    240.77041    242.37807    252.66418    267.08561    250.41666    252.26158    245.87418    246.65888   
 23      260.93355    273.98590    253.64620    254.66481    263.25504    254.44543    263.29202    269.73664    258.53248    256.27311   
 24      268.35522    250.86569    247.86743    255.67627    256.00301    272.76602    262.72796    260.05866    245.03327    262.24049   
 25      271.00687    278.24351    269.70299    255.13467    267.84924    269.76655    281.18077    268.15972    268.58696    275.44028   
 26      271.44794    263.83824    295.76243    283.13037    274.10274    285.54768    292.27275    269.81011    271.72824    268.66849   
 27      289.94563    269.48893    279.85188    257.91402    290.77013    273.91280    264.67755    279.18633    289.09769    279.31164   
 28      300.21920    284.64221    294.59984    281.32949    291.31325    279.67277    273.76560    289.13249    292.35090    284.57707   
 29      299.54747    303.34381    295.69883    296.75393    300.84694    285.70462    296.22330    285.84589    308.82801    282.91583   
 30      285.37933    285.81015    282.96430    298.20089    277.16590    304.56655    296.18368    307.31579    280.95920    305.34037   
 31      287.40247    283.80075    309.37394    298.60121    296.14477    294.71821    310.68417    304.12804    315.75344    317.97230   
 32      302.65601    311.56604    306.86030    306.82025    334.44221    307.43015    302.23676    309.22190    313.62094    321.34984   
 33      296.15728    313.05873    329.11419    309.35650    317.72311    301.91255    292.91415    310.20744    323.77639    320.99782   
 34      303.80862    318.56655    307.79125    316.15605    302.13206    327.04090    316.42839    310.41851    330.11511    319.71128   
 35      328.43680    315.29054    333.90877    329.93528    333.78171    347.10394    328.97405    337.24940    314.67152    330.70792   
 36      336.65163    326.43555    335.00201    323.95500    322.83645    336.71275    319.04764    337.77075    337.00555    317.68280   
 37      343.79557    356.54608    329.98564    324.86049    329.49331    335.74800    339.45275    336.99252    335.79471    347.39605   
 38      329.96160    338.65717    360.33683    340.88401    343.47961    367.71885    337.46979    355.54739    332.10019    366.32074   
 39      366.67294    366.86312    363.21356    370.67719    373.72723    353.62094    351.19004    351.28430    377.91331    363.21009   
 40      353.03940    383.01275    350.01950    365.54277    359.21972    356.75651    355.57039    378.49961    358.14973    350.42465   
 41      362.55207    381.22301    360.82477    372.14205    364.97936    369.90853    368.09871    379.75108    348.47367    361.77104   
 42      375.10826    379.02978    371.17851    382.79290    396.36162    406.93019    357.19506    378.64553    374.87422    388.43043   
 43      380.79688    368.32913    376.48092    382.04615    382.56467    394.89646    386.81637    388.87949    394.11939    392.52824   
 44      379.66952    388.44487    385.01275    383.34780    385.67515    413.07088    421.73187    391.30448    405.14380    385.84207   
 45      386.71075    389.56393    387.99733    414.23129    394.13809    409.97277    383.21882    420.61426    402.58684    427.93329   
 46      418.89452    414.39857    423.30842    419.60556    421.26622    409.15777    412.00943    403.33911    419.28747    419.49083   
 47      422.42205    417.67800    432.86611    417.91871    430.88020    414.07731    411.72194    405.35759    406.85423    427.04195   
 48      403.94032    450.03341    432.75626    432.46778    451.94274    417.14648    417.53760    455.39545    406.41853    462.16930   
 49      452.81485    459.38920    446.04201    409.96419    439.12816    446.82885    413.59160    425.41405    446.56090    456.73506   
 50      439.01809    445.65974    476.51464    437.99630    424.85917    441.79368    424.38383    454.01239    414.46956    460.42841   
 51      448.65555    464.24269    457.56096    471.93876    475.90100    460.88734    484.50641    453.26419    471.11119    468.85949   
 52      456.27172    460.73235    470.74150    478.97737    486.37219    456.41193    454.06880    478.29223    469.06278    489.12150   
 53      455.31723    484.75229    473.70844    477.87465    467.20610    484.11421    506.33065    495.56628    482.94962    508.68373   
 54      458.05419    509.75897    490.93494    491.60152    474.70482    483.62631    461.85268    487.01467    493.62238    484.18025   
 55      503.01441    494.48528    522.82501    480.14799    511.37027    519.73028    511.27762    501.38801    509.68014    490.16394   
 56      518.82754    506.75049    516.34144    520.41380    491.90211    532.44419    506.53755    507.67315    553.20349    512.56793   
 57      538.75483    495.06234    565.48976    552.29685    538.27422    538.95010    516.94672    528.58032    524.19849    539.76607   
 58      566.33771    559.97610    553.88706    536.99468    548.57997    538.64937    528.05714    528.36563    515.09163    543.32494   
 59      587.29955    529.50758    542.08212    593.68056    527.30690    554.31971    546.45104    557.37295    539.53497    546.26426   
 60      562.61552    563.45891    587.75685    556.93554    533.12839    614.49065    557.09674    575.97003    551.23387    546.85267   
 61      553.75972    591.03174    561.93988    572.30230    562.04331    567.93366    585.51563    581.89016    542.99995    553.96120   
 62      621.98388    562.33982    579.91243    630.92314    585.47996    588.62109    589.74573    588.78007    593.53424    609.69589   
 63      619.14108    587.29758    589.14292    612.50849    562.82728    617.85256    567.69557    583.16097    596.33852    651.85950   
 64      581.78905    611.52178    638.82403    640.42094    631.66631    601.28323    583.38240    609.90226    614.44126    649.18937   
 65      599.81106    606.74279    626.47366    641.46475    626.82142    658.16172    631.08538    586.37565    616.40809    638.79489   
 66      666.05967    653.33331    633.38060    623.83885    672.49897    642.34252    626.21736    628.87351    671.81141    656.93700   
 67      654.69712    652.67382    686.26116    655.82779    678.84212    693.13716    646.46274    664.40648    658.21748    633.40002   
 68      669.32411    714.69819    684.10246    647.73845    676.60189    665.03634    706.79777    663.03769    720.78933    635.03066   
 69      688.53085    678.06676    688.40786    690.70719    679.27010    701.88196    662.76904    686.00710    637.40999    650.50812   
 70      714.73215    694.23821    746.08731    664.37427    661.84310    742.31331    683.85297    723.19841    716.94441    711.28695   
 71      749.00880    697.45699    711.47374    743.61628    716.41730    685.58247    690.83800    726.35336    702.16493    759.77179   
 72      767.28524    775.20462    741.30913    750.12476    781.08004    726.13981    715.60869    724.13445    747.93534    695.85603   
 73      744.11119    750.22569    779.55645    759.98634    739.96973    743.48869    736.01864    741.91762    742.15503    728.16670   
 74      789.78830    728.14257    777.02246    731.88469    818.34390    769.72801    818.10121    780.43043    754.18605    776.58622   
 75      826.63636    757.92571    787.52323    800.00991    808.98171    828.25025    781.03275    814.57729    764.74409    782.19519   
 76      826.84022    822.21738    761.42524    846.54267    840.68731    783.79642    803.83542    816.98121    768.55518    791.39240   
 77      830.92452    794.72383    807.62925    799.68731    804.99691    835.76591    790.61285    793.99908    790.77909    811.06469   
 78      886.39342    887.31228    825.17839    821.39895    796.31869    835.51640    885.46063    797.37046    841.51331    825.06788   
 79      916.71845    889.47897    838.60949    846.14825    886.08072    824.94931    859.23251    847.70526    889.30636    866.37857   
 80      816.06558    865.00040    871.89940    899.40187    884.46520    904.56762    908.15715    861.42053    906.63587    903.95222   
 81      882.13515    875.58784    905.94274    910.25314    880.51378    959.64030    928.49517    886.28969    908.06370    906.76694   
 82      945.50744    905.13469    928.52964    942.96505    928.55452    892.30229    926.02202    916.84817    950.15263    969.34457   
 83      953.10919    920.86063    935.55370    970.88421    936.73442    969.12665    947.00425    905.42508    974.01912    898.90393   
 84      993.41148    984.27004    958.88830    971.52549    941.95897    981.54235    968.18150    941.98369    972.98626    938.16385   
 85     1006.15276    987.34926   1021.15760   1021.24766   1011.70860   1000.74266   1004.53688   1015.17792   1001.24791    990.81046   
 86     1028.12311    977.57107    971.11618    988.03285    994.55123   1040.29063   1019.26362   1052.90839    983.52361   1065.03925   
 87     1040.77823   1068.43832   1006.07221   1035.28662   1055.05032   1047.93237   1058.13164   1048.98907   1073.29107   1029.97624   
 88     1046.82300   1068.12613   1064.64786   1080.16518   1013.58963   1067.14770   1054.46745   1081.28118   1099.00574   1086.21137   
 89     1014.79532   1036.77170   1125.54759   1080.54023   1058.40127   1039.66729   1028.08071   1068.32782   1044.10982   1123.93258   
 90     1049.65874   1104.78056   1073.43818   1069.15724   1153.03354   1083.72320   1140.34478   1053.04913   1102.04868   1130.05484   
 91     1092.71829   1136.73924   1079.50206   1109.27968   1112.96873   1114.83621   1102.29866   1104.93929   1069.02001   1098.25258   
 92     1142.45120   1124.00470   1187.04274   1128.42706   1148.62749   1198.57130   1134.93207   1156.98371   1112.39891   1162.07204   
 93     1222.82046   1185.02653   1189.98721   1152.51817   1147.79403   1187.72707   1193.96342   1194.34660   1121.32779   1170.36449   
 94     1155.95019   1168.95954   1220.26391   1180.14954   1213.30592   1134.71003   1182.31121   1159.72646   1200.62673   1139.99347   
 95     1232.10815   1203.56425   1182.56693   1209.26425   1176.75444   1221.19874   1185.53683   1234.50879   1219.95975   1183.62320   
 96     1236.19740   1251.84143   1267.67407   1269.19179   1167.34829   1269.12318   1228.96998   1313.87131   1233.27229   1270.92444   
 97     1270.15122   1231.45631   1242.72272   1295.65505   1344.10396   1329.46446   1322.51151   1304.14253   1264.41923   1245.45481   
 98     1316.56618   1355.45214   1326.16697   1279.32147   1317.62285   1220.97062   1360.64610   1268.88159   1291.52616   1303.66123   
 99     1265.70689   1292.50355   1314.58552   1329.00086   1301.85624   1249.28946   1308.80170   1355.14813   1345.63387   1351.49603   
100     1381.99134   1336.58971   1394.66545   1339.66772   1351.11792   1338.77437   1373.17738   1346.47008   1310.86792   1392.93837   
101     1322.53747   1344.46506   1349.65422   1444.58805   1329.11108   1381.59795   1430.47699   1329.94053   1338.76623   1367.88195   
102     1462.22702   1398.66139   1458.30222   1435.54972   1405.22144   1441.98475   1411.53485   1378.00736   1461.35302   1350.87045   
103     1488.04729   1409.31151   1483.33620   1481.75180   1505.12139   1452.95991   1389.04692   1512.35171   1446.83693   1488.37633   
104     1439.38253   1429.37210   1460.09924   1533.89402   1437.31145   1517.66800   1489.52690   1431.17749   1461.04641   1494.05328   
105     1411.80541   1465.80222   1562.55653   1447.02249   1506.88371   1525.62424   1530.39857   1437.30933   1584.65474   1491.95601   
106     1496.70903   1477.34410   1539.90042   1512.69540   1536.20206   1488.58124   1479.00910   1545.73830   1455.31348   1604.69877   
107     1561.97715   1500.15522   1516.29796   1582.74514   1595.69864   1526.82630   1518.25493   1584.76706   1543.27320   1586.13717   
108     1618.80461   1552.01282   1546.25573   1645.57338   1622.92407   1560.04501   1629.04309   1637.90058   1612.01340   1535.54935   
109     1586.41474   1653.51342   1573.11551   1665.37431   1628.65641   1622.09037   1703.29382   1655.36164   1598.18925   1562.04624   
110     1634.13795   1732.10942   1703.58353   1694.12635   1641.61029   1693.59161   1658.60241   1716.06056   1638.50585   1679.34616   
111     1720.30583   1668.61256   1715.70829   1709.81775   1627.10640   1702.37839   1640.42051   1714.85771   1745.11501   1623.60462   
112     1720.26218   1687.74712   1760.16906   1742.27677   1751.35079   1784.53914   1783.34308   1708.21996   1739.03703   1743.78081   
113     1821.00243   1812.55869   1713.40178   1775.99546   1813.25380   1823.83557   1680.48332   1751.59025   1793.27105   1739.98700   
114     1785.31582   1792.23666   1699.36049   1760.78416   1715.81834   1769.81304   1795.48572   1824.59377   1839.74688   1810.01519   
115     1833.50285   1782.69396   1780.37123   1876.44628   1796.22262   1711.20289   1841.16652   1763.49558   1822.63496   1857.74502   
116     1816.48398   1811.70554   1849.12471   1824.80581   1967.55986   1979.93338   1851.88310   1821.29240   1835.65668   1888.00762   
117     1835.37468   1908.03251   1959.85065   1850.54033   1936.91141   1900.91501   1928.36205   1915.86799   1906.54489   1955.38576   
118     1867.95088   1955.83301   1905.66571   1871.13154   1922.16875   1932.59317   2004.56143   1907.45204   1907.13264   1855.67194   
119     1863.41948   1982.41684   1933.73458   2064.90830   1895.90461   1989.45996   1998.95456   1896.46948   1911.24433   1949.78527   
120     1956.86679   1929.57988   1993.02604   2009.07771   1987.84567   2076.35923   2004.29170   1980.82229   2085.20950   2006.38678   
121     2079.92422   1928.00375   2101.47346   2157.85983   2033.13231   2117.41451   2048.53603   1968.36699   2053.09528   1993.38226   
122     2064.36802   2115.31523   2156.47071   2143.01267   2049.20941   2120.39513   2047.26939   2108.77896   2203.88321   2104.57950   
123     2174.59430   2128.59599   2123.31711   2189.95223   2038.88802   2019.89815   2025.96711   2150.99074   2125.68314   2137.75118   
124     2153.49538   2072.90625   2088.33940   2314.44265   2175.89364   2170.55463   2194.61344   2057.07906   2212.91440   2158.42082   
125     2225.33257   2222.38869   2101.29117   2181.92834   2202.65083   2127.08943   2189.54542   2277.38633   2105.92517   2199.47190   
126     2319.63183   2176.21814   2306.90252   2218.10626   2228.62283   2184.92695   2136.49462   2119.25851   2208.88533   2341.87964   
127     2368.69025   2290.96419   2347.15133   2278.18320   2192.04950   2352.97703   2296.55061   2314.83901   2381.65835   2279.34610   
128     2349.62403   2217.45985   2396.33144   2266.92116   2220.15492   2230.05171   2203.54680   2361.89525   2337.50347   2327.45710   
129     2428.51677   2302.67547   2292.69258   2386.11824   2394.26335   2399.13025   2489.45745   2371.28125   2345.83395   2443.82262   
130     2468.76676   2276.21617   2364.15985   2285.54572   2367.58571   2332.92735   2326.87063   2383.81358   2311.52226   2332.73034   
131     2464.53331   2480.92235   2499.97250   2440.57921   2483.79233   2368.93062   2495.19818   2378.23610   2445.54616   2434.60336   
132     2548.14290   2453.10220   2647.08298   2435.32100   2410.63272   2444.91602   2589.21491   2511.93706   2481.34743   2474.73089   
133     2582.60339   2431.85277   2480.67907   2446.75652   2508.17466   2440.83579   2653.39805   2643.85910   2509.95388   2598.76528   
134     2597.57584   2543.48905   2667.59159   2626.38037   2597.40496   2520.39376   2615.51208   2553.32804   2563.07570   2565.48575   
135     2661.49989   2550.11871   2605.23555   2579.74166   2555.09089   2561.49476   2602.75462   2573.83642   2683.10462   2671.79662   
136     2538.47761   2696.55286   2708.92193   2683.20080   2623.79510   2566.84823   2677.80973   2652.38397   2739.96416   2735.65475   
137     2762.98461   2604.20750   2805.79921   2741.74349   2619.94411   2683.98086   2795.04775   2636.50897   2654.99848   2609.74629   
138     2709.24398   2842.04721   2741.60286   2757.05581   2741.83909   2793.43089   2644.11699   2725.16295   2777.41438   2792.37949   
139     2809.28212   2852.93585   2867.19400   2714.25046   2750.34153   2744.00730   2893.89713   2946.89353   2899.40310   2693.00186   
140     2772.27050   2741.37323   2862.91828   2795.32324   3000.53182   2785.36245   2822.83514   2829.38498   2820.04667   2846.95955   
141     2921.10582   2889.42318   2951.84565   2960.33657   2933.54067   2799.33790   2914.75834   2824.36000   2867.66794   2882.78730   
142     2836.27040   2891.83924   2841.68565   2865.22080   2874.40208   3016.47291   2916.56156   2922.32511   2871.17909   2900.93411   
143     3036.55760   3028.20749   3012.61405   3132.79518   3001.59752   3031.39816   3006.17687   3153.17188   2943.29195   2976.23875   
144     3057.14543   2941.71700   3086.80094   3075.59152   3096.29179   2989.46173   3181.07827   3036.38771   2880.94804   2916.11325   
145     3060.48138   2987.95787   3097.41032   3159.17222   3000.69218   3055.50720   3035.04654   3157.53060   3129.05721   3122.98655   
146     3088.99239   3050.29203   3170.42395   3105.17256   3024.87021   3115.08507   3248.34858   3071.71408   3110.54875   3208.49786   
147     3222.69211   3192.81912   3145.31336   3080.81085   3099.65819   3256.16152   3201.53788   3181.09549   3231.68278   3057.69311   
148     3226.08897   3129.25456   3168.21124   3231.98126   3314.27617   3111.00336   3193.95195   3235.02245   3207.01780   3053.20121   
149     3214.47713   3269.08589   3217.12842   3244.88570   3392.71677   3269.72841   3393.31438   3176.13366   3268.53050   3300.99151   
150     3366.13167   3249.31699   3453.33323   3304.20294   3449.55956   3380.30178   3381.79750   3313.83109   3194.53868   3293.48231   
151     3458.09106   3292.16753   3412.47212   3477.40201   3328.94300   3456.56709   3464.06260   3383.96888   3370.45483   3378.16441   
152     3361.42780   3501.16566   3432.85128   3485.29679   3477.07135   3383.71140   3289.36370   3371.92171   3371.95096   3461.74812   
153     3499.04131   3447.94714   3430.83947   3475.16819   3434.43550   3471.03817   3437.54971   3374.54348   3457.12227   3543.78959   
154     3681.43231   3381.02534   3567.01130   3493.34924   3496.92139   3466.12929   3583.99334   3623.92519   3635.58396   3416.85314   
155     3573.87018   3521.93204   3483.80856   3554.80203   3572.66394   3599.57552   3636.58574   3572.57978   3558.58943   3522.45933   
156     3603.75234   3661.11388   3651.20492   3620.65236   3650.90557   3545.98153   3569.05667   3764.40192   3691.96410   3689.57953   
157     3573.67924   3607.67768   3700.77281   3736.42316   3687.39089   3803.06793   3741.70504   3615.44331   3687.83511   3571.63525   
158     3708.65000   3689.08861   3664.21991   3850.38523   3667.00172   3657.94098   3732.94066   3704.23202   3693.05981   3642.95783   
159     3774.12833   3786.80147   3848.87391   3608.51602   3781.15683   3696.46553   3937.90528   3745.60617   3805.40129   3617.66578   
160     3748.03426   3796.15727   3841.43608   3909.91332   3851.63068   3876.43037   3888.29103   3875.23802   3743.25569   3956.69415   
161     3913.14461   3888.40739   3876.44294   3848.98909   3959.54589   3899.08527   4010.50205   3965.46598   3831.48056   3900.53386   
162     3733.25453   3921.44680   3853.62536   3933.93285   3837.61255   3805.29927   3819.38412   3967.25937   3957.07044   3899.55136   
163     4034.22104   4045.46203   3933.55816   3980.65755   4021.68260   3922.98327   3856.47942   3927.99540   3902.54446   4065.00454   
164     3995.04457   4062.92098   4119.75588   4090.34611   3951.07891   4062.03040   4088.61376   4115.58887   4083.24858   4095.22171   
165     4137.44169   4055.05378   4259.21506   4003.54484   4000.22278   3969.20388   3905.63977   4110.04963   4053.90365   4200.90949   
166     4081.61156   4107.03078   4302.26805   4304.95154   4060.62208   4097.00779   4105.62236   4138.28661   4033.66114   4240.34914   
167     4206.62170   4228.28396   4169.24971   4134.76671   4180.75193   4188.70467   4129.75619   4252.60228   4137.67742   4191.00087   
168     4287.93603   4096.99539   4190.31327   4245.75588   4198.67586   4302.16578   4298.74227   4233.10917   4081.46755   4216.33647   
169     4225.17055   4196.20894   4111.68269   4291.33446   4138.86448   4288.11494   4152.71562   4328.05145   4488.13506   4351.81682   
170     4211.45936   4419.88534   4393.50196   4318.81536   4335.56623   4292.76214   4328.28880   4280.75894   4315.03983   4316.61244   
171     4414.49796   4433.38378   4336.10554   4438.47311   4372.79701   4441.76205   4397.65359   4325.34144   4401.21696   4456.77444   
172     4614.61802   4501.15857   4510.51064   4370.17685   4434.71104   4505.35904   4269.59513   4607.89108   4384.41469   4513.67451   
173     4578.91680   4439.43796   4501.04090   4512.82201   4553.36301   4599.58873   4538.91425   4623.04250   4507.63503   4622.97937   
174     4479.90728   4679.79806   4376.61679   4456.16560   4720.78137   4495.39318   4688.20241   4561.59612   4724.63820   4696.69014   
175     4612.50730   4446.33994   4717.21324   4678.46522   4634.23601   4684.99411   4598.89903   4608.50828   4571.25369   4770.51569   
176     4664.44933   4723.98574   4633.55643   4748.39186   4619.94029   4622.67752   4731.87260   4600.36419   4543.10490   4613.14070   
177     4816.11588   4694.34072   4756.46914   4718.64335   4777.89367   4638.62607   4853.02528   4717.37340   4658.48983   4814.56461   
178     4876.10669   4690.50393   4756.29916   4852.89213   4730.18793   4913.08003   4686.77784   4798.63979   4758.02215   4613.54297   
179     4740.69598   4776.97748   4825.72862   4776.22498   4746.70791   4719.32446   4962.71950   4908.56641   4965.42897   4820.13546   
180     5044.52325   4761.24714   4815.01995   4961.74392   4735.46275   4976.69937   4778.02615   4927.93485   4910.17396   4827.76114   
181     5048.95399   5063.60488   4880.53775   4890.52991   4985.73365   5123.01701   5094.72053   5053.69612   4930.03046   4745.66366   
182     4906.79469   5045.76944   5057.24144   4990.14903   5007.41355   5007.85847   5010.73566   4838.28927   4960.37407   5003.08119   
183     4967.82695   5156.79874   5066.36423   5102.51872   5032.63593   5132.19875   4912.07004   5093.20811   4954.49374   4948.94963   
184     5134.31185   4977.78432   4968.99264   5012.37353   5160.85196   4997.04732   5205.42188   4978.60151   5295.15200   5180.25491   
185     5250.91246   5112.44387   5078.27296   5083.33177   5038.59464   5099.83160   5247.07680   5102.43353   5037.94299   5115.55457   
186     5195.67900   5213.81792   5176.58532   5209.85599   5137.81034   5397.60965   5151.21712   5222.17247   5151.87191   5072.16457   
187     5319.71302   5250.60469   5346.48519   5202.18276   5190.80464   5250.62858   5366.32343   5106.49797   5209.49671   5296.12135   
188     5300.34457   5373.89501   5345.48204   5160.42711   5348.90548   5372.10085   5390.50896   5333.67340   5281.36210   5168.84733   
189     5539.14161   5368.13177   5528.69157   5263.87078   5255.60695   5421.66778   5224.68627   5337.72109   5576.73191   5209.14277   
190     5351.19062   5535.61187   5448.33223   5480.31068   5338.54294   5583.04131   5414.28458   5388.31130   5451.57667   5447.18036   
191     5472.26562   5499.64556   5436.86667   5328.20773   5475.48947   5562.64483   5473.67546   5509.36067   5537.08219   5646.23705   
192     5493.43797   5578.83914   5717.94968   5523.70512   5489.67641   5579.29158   5629.15070   5459.22740   5365.73606   5704.02654   
193     5619.76409   5607.18373   5466.51801   5535.45851   5625.69158   5586.05892   5415.60342   5503.82046   5559.97686   5571.00065   
194     5616.92827   5433.38079   5414.42597   5669.33300   5628.61244   5703.68757   5461.16604   5572.90579   5711.34874   5611.04552   
195     5713.65497   5428.17275   5697.47015   5839.45141   5682.05636   5661.51681   5814.24376   5710.03575   5651.15770   5640.40924   
196     5712.62771   5923.68920   5636.07765   5792.27757   5584.40468   5729.11747   5735.94439   5695.44212   5732.92507   5760.48064   
197     5899.13019   5795.76972   5725.83063   5645.95640   5757.99537   5918.04992   5694.15288   5792.20158   5564.51501   5753.19517   
198     5764.13520   5826.03323   5958.22789   5765.14163   5680.64858   5713.50490   5762.79127   5768.62726   5813.41418   5700.18967   
199     5803.47357   5795.67155   6015.50673   5722.78996   5970.58293   5667.40835   6008.48763   5713.96871   5782.10272   5878.49293   
200     6058.50943   5878.93577   5861.49421   6083.45559   5767.30668   6104.08289   5845.48554   5954.46178   5947.67566   6132.10947   
201     5901.38270   5870.25949   6033.94584   5999.60624   5879.67663   5886.07008   5921.80374   5906.10388   5981.09056   5991.16433   
202     6005.37192   5913.09075   5859.17978   6192.48835   5908.04878   6145.93284   5955.04565   5902.39120   5996.25794   6012.19142   
203     5948.68364   5981.81821   6215.45403   6143.14268   6162.59331   6136.72269   6069.58534   5878.07925   6156.27780   6201.60509   
204     6008.01705   6174.55202   6251.22521   6127.33779   6035.86745   6185.49083   6011.82560   6103.00104   6254.93635   6032.53715   
205     6048.43459   6136.72056   6212.85003   6155.72487   6119.63452   6223.90121   6063.28802   6218.96464   5955.25989   6237.68712   
206     6139.86634   6257.23113   6043.47103   6049.91774   6259.50887   6068.14049   6142.27285   6285.12066   6043.34662   6217.68062   
207     6148.98462   6302.38813   6179.53500   6101.79924   6079.26906   6364.11008   6242.61866   6130.56448   6317.50443   6077.20757   
208     6350.31827   6388.93316   6205.10153   6319.33807   6307.53391   6302.30688   6322.37017   6316.00050   6269.80887   6188.56915   
209     6221.63626   6223.01836   6457.63525   6257.95172   6243.38100   6315.23353   6369.29194   6375.99748   6493.36106   6354.11975   
210     6508.13003   6467.72358   6431.27103   6172.87586   6361.87177   6511.09913   6394.26818   6281.17130   6269.55208   6553.89930   
211     6491.43418   6382.85508   6407.83155   6333.58611   6356.94704   6351.76622   6248.11014   6578.19042   6382.76944   6573.17161   
212     6394.49504   6477.59130   6537.79685   6439.52955   6497.35103   6518.31657   6382.36783   6595.60480   6599.33605   6402.13289   
213     6592.35924   6627.02611   6465.14750   6570.92927   6511.03998   6654.66361   6382.83210   6581.88721   6645.23295   6632.02490   
214     6604.13914   6643.30097   6558.93517   6600.59885   6555.80131   6607.08361   6680.72634   6499.26953   6538.02648   6477.61116   
215     6426.06806   6460.93200   6507.69968   6580.62872   6505.67187   6525.19977   6520.22865   6597.00529   6558.41593   6514.56010   
216     6454.45969   6687.58593   6732.32325   6517.18129   6671.26524   6596.25399   6519.49518   6526.26302   6745.52646   6516.39197   
217     6697.90353   6586.54817   6615.02926   6538.04159   6540.92835   6732.07169   6827.81518   6525.86200   6621.14690   6495.29787   
218     6890.93983   6544.61377   6557.60185   6759.76552   6672.89414   6787.66189   6621.89654   6633.62944   6504.60041   6875.70412   
219     6838.73055   6513.53753   6909.87685   6782.00111   6809.28734   6716.26219   6767.15837   6851.69825   6794.97170   6660.58397   
220     6818.52096   6615.17683   6886.76895   6729.58159   6757.05377   6869.02462   6777.71240   6774.52653   6703.78878   6694.93012   
221     6628.87643   6908.27732   6680.03409   6844.95945   6688.53653   6805.57852   6832.38264   6908.99053   6697.41277   6833.02741   
222     6753.95419   6926.88061   6851.43876   6907.47058   6957.92861   6779.52014   7017.98068   6844.48192   6718.28230   6895.93309   
223     6856.21590   6907.34904   6694.42781   6882.03588   6982.33931   6683.52687   6992.22265   6895.06057   6978.87298   6993.98945   
224     7061.39151   6976.20984   6857.85375   7009.72689   6833.67122   6980.27809   6726.28126   6803.46391   7071.23083   6849.71695   
225     6951.08643   6848.80629   6978.70866   6954.47404   7025.52588   6918.03263   6801.83173   6900.72056   6882.42791   6956.08580   
226     6909.42082   6858.43951   6799.98352   6848.02271   6987.23559   6927.93609   7025.87685   7005.52868   6880.36098   6871.62152   
227     7125.04944   7032.46719   7115.26408   7022.46003   7157.60494   7076.36048   6988.41825   6935.39826   6829.91779   7064.40397   
228     7189.74190   6973.30061   7071.45927   7001.26193   7074.89991   7056.38484   6897.58293   7035.68460   7158.72018   7107.79864   
229     7012.81923   6985.93210   7062.82595   7192.49221   6960.87320   6934.62829   6886.58076   7197.19722   7023.38668   6926.82754   
230     7185.31005   7036.31550   7193.72026   7189.46678   7108.00965   6973.32689   7269.50723   7005.31026   6940.77915   7190.68671   
231     7049.11419   7218.36363   7255.02098   7139.87603   7061.93912   6993.09494   6985.70764   7067.95900   7078.50270   7137.70476   
232     7308.43567   7202.83223   7284.37371   6998.89377   7031.32373   7019.22307   7245.44377   7104.67839   7232.89273   7135.48975   
233     7179.69003   7020.51197   7047.80591   7298.45833   7330.65026   7188.32798   7004.10232   7287.40555   7079.05352   7125.13511   
234     7272.13040   7138.92289   7232.40545   7224.30407   7170.39898   7094.48481   7316.24656   7270.66898   7204.84657   7255.86618   
235     7013.55061   7416.29314   7137.31181   7322.80170   7276.53563   7272.13424   7275.39136   7088.20395   7234.30174   7050.04675   
236     7232.15901   7062.71765   7184.00955   7100.70008   7355.60008   7342.28194   7193.53174   7200.90875   7239.75420   7179.05581   
237     7121.28060   7370.05637   7398.24197   7255.81133   7263.59167   7434.67068   7211.70512   7153.25241   7132.09764   7221.29049   
238     7348.64127   7240.51556   7103.69790   7206.11773   7353.30010   7403.79749   7218.68085   7161.50424   7321.53651   7288.88011   
239     7264.17137   7308.37025   7187.99540   7262.79642   7137.06619   7247.92288   7332.52080   7377.65321   7111.77658   7187.23343   
240     7335.29352   7485.54533   7408.55722   7298.74484   7159.82196   7229.24082   7296.29698   7223.93188   7451.77282   7160.11695   
241     7342.40806   7332.13484   7336.40688   7280.40767   7495.62774   7295.88664   7268.54524   7446.56558   7431.34258   7239.38701   
242     7460.69912   7328.69062   7330.76117   7374.34456   7453.36623   7437.76936   7260.91833   7301.35478   7397.12611   7206.24496   
243     7475.55869   7424.39586   7521.27457   7485.30824   7440.33592   7245.12709   7224.56238   7570.43059   7397.27576   7371.43190   
244     7230.55631   7574.57425   7544.31110   7244.08767   7518.62861   7325.43269   7497.51463   7437.44600   7427.24764   7310.58450   
245     7524.60023   7420.59498   7390.18979   7568.94871   7517.13473   7475.72567   7361.72057   7340.17839   7425.73847   7318.14411   
246     7543.24099   7343.95004   7322.12680   7357.40435   7374.94388   7276.65316   7574.68851   7289.34882   7296.40991   7247.95949   
247     7369.31476   7549.58733   7502.81195   7468.47421   7301.84947   7438.72117   7299.33831   7436.77690   7272.99715   7517.89636   
248     7482.72604   7474.78093   7470.92980   7464.12253   7278.20187   7590.64493   7578.24579   7283.41618   7530.74645   7339.34672   
249     7597.40585   7458.06463   7576.95863   7358.13117   7428.66200   7338.51126   7413.12819   7334.82350   7369.19837   7462.91314   
250     7306.19320   7508.89999   7647.12860   7400.05313   7416.58694   7478.24259   7520.46715   7491.86448   7352.91524   7307.93060   
251     7638.17488   7286.35145   7519.50958   7340.08678   7614.29437   7281.06012   7313.70651   7609.93759   7521.80323   7587.30172   
252     7642.10800   7556.86936   7516.79667   7338.97505   7355.78631   7320.49749   7638.42249   7647.59789   7310.36801   7406.51883   
253     7370.17062   7514.18461   7468.50765   7562.72994   7409.93625   7554.92953   7629.16308   7380.33670   7500.90985   7307.52509   
254     7598.92905   7368.77535   7464.69366   7456.34495   7472.66525   7649.89368   7583.37262   7443.03324   7562.88671   7476.43755   
255     7322.46930   7366.42200   7518.81976   7384.32714   7430.70915   7589.31144   7375.48395   7560.92700   7400.29827   7620.34896   
256     7670.33146   7602.16190   7434.37902   7623.74787   7546.27521   7515.23459   7594.35425   7340.96200   7558.04897   7470.34966   
257     7604.52027   7532.10660   7512.15492   7550.57573   7551.04364   7473.92109   7331.66892   7537.65375   7346.79145   7437.13804   
258     7578.57455   7418.11660   7544.20270   7331.45022   7459.29443   7630.56247   7647.58678   7355.92455   7545.86220   7548.22720   
259     7334.75676   7534.90843   7657.89215   7423.56233   7433.38730   7608.92857   7504.07005   7375.62856   7463.87093   7351.38942   
260     7641.12548   7444.82880   7598.87674   7381.90187   7655.44764   7419.93731   7582.28481   7415.39268   7476.00248   7616.09662   
261     7524.79652   7335.73532   7553.75416   7324.94198   7433.24695   7614.12529   7579.97824   7454.31385   7633.91869   7457.38739   
262     7617.16050   7476.82080   7611.33369   7364.37157   7586.26144   7540.44112   7356.21277   7581.67684   7542.21031   7378.89505   
263     7452.45927   7510.71985   7424.86837   7435.20074   7466.18803   7469.62336   7559.79888   7620.72585   7632.83614   7311.78825   
264     7337.86270   7373.00745   7428.57088   7491.14075   7319.63816   7562.94908   7356.80739   7510.00730   7654.20681   7627.72070   
265     7303.82426   7361.70829   7522.20071   7377.21952   7322.19905   7550.78672   7513.41870   7490.21608   7532.37627   7374.72114   
266     7303.12023   7445.84770   7628.81574   7337.48259   7568.56024   7468.15892   7611.84240   7575.35070   7575.73488   7510.28235   
267     7424.68228   7329.46234   7561.64453   7494.29671   7462.81696   7291.16111   7631.26874   7399.23232   7312.30781   7459.23588   
268     7470.97872   7465.09438   7357.54648   7389.47393   7585.28230   7321.71033   7443.27163   7303.72517   7337.91408   7477.80427   
269     7329.82783   7518.60121   7492.89108   7291.87375   7523.20011   7300.76247   7332.02413   7356.67342   7493.91022   7370.79937   
270     7561.92187   7472.95605   7487.93509   7426.70505   7438.78973   7383.39450   7385.39214   7363.28783   7340.89382   7350.62949   
271     7356.17855   7267.58939   7344.32184   7249.03401   7391.86193   7446.99455   7340.96756   7422.79258   7499.54304   7437.30078   
272     7223.47578   7282.67298   7568.23444   7250.37464   7413.38964   7433.12589   7523.31167   7504.01260   7482.55753   7478.04163   
273     7423.24219   7402.43349   7268.42797   7265.71670   7263.84417   7304.44335   7255.87142   7273.06746   7422.57324   7443.01957   
274     7495.88848   7369.53750   7494.52137   7418.65634   7378.92913   7340.16192   7348.49964   7352.02871   7403.28152   7264.40042   
275     7290.47373   7342.89142   7223.32142   7399.66897   7218.08857   7515.81990   7473.04536   7345.77886   7303.17827   7410.36243   
276     7512.62571   7193.64520   7375.41504   7300.84764   7202.05954   7444.63319   7489.11531   7271.80082   7140.06124   7212.15613   
277     7349.89616   7259.73573   7351.16839   7239.24666   7200.24242   7369.63531   7307.69367   7205.99372   7331.30613   7150.39376   
278     7303.27630   7211.32878   7239.41090   7191.62223   7141.98984   7282.42688   7199.13827   7175.15575   7335.99060   7284.02215   
279     7282.49976   7144.58358   7326.21028   7403.92816   7207.53708   7114.62794   7114.81919   7319.92254   7319.18551   7182.11344   
280     7211.47588   7370.72380   7253.83767   7312.22498   7171.30889   7409.86686   7257.84480   7322.93512   7411.32373   7094.19898   
281     7342.03011   7340.36934   7311.92250   7263.92127   7299.98268   7084.99430   7119.84252   7217.25190   7344.58467   7158.18853   
282     7103.69850   7056.65292   7188.07902   7006.71636   7089.73299   7103.50978   7112.77834   7221.24830   7161.61490   7210.40140   
283     7198.21467   7255.69247   7132.39063   7153.78442   7264.20190   7078.38671   7066.63276   7129.53797   7097.14364   7154.59551   
284     6970.33746   7085.95822   7223.03337   6979.87913   7038.33292   7123.12911   6997.67087   7227.07071   7168.20641   7168.81519   
285     7029.60243   6968.64446   7114.74521   7186.20249   7211.29103   7277.12148   7019.11473   6990.09791   6999.19874   7236.77287   
286     7063.58432   7084.30220   7078.73706   7216.36992   7250.94344   7225.09488   7096.24481   6998.26513   7016.34358   7140.55458   
287     7161.03750   7095.72797   7209.55685   7100.14362   7199.39887   7117.51502   7066.49735   7073.80412   6983.47276   7032.35006   
288     7092.27671   6997.74796   6967.23509   6866.51210   7018.30968   6935.32456   7107.60155   7011.18135   7147.21275   7024.67064   
289     6981.60457   6910.46526   6927.93973   7056.71143   7138.57176   7155.47176   7025.21293   7042.16222   7109.99489   6883.95808   
290     6951.33083   7124.75191   6824.37481   6897.99712   7034.48502   6867.98175   6803.85091   7070.35184   6781.79493   7077.29964   
291     6789.56623   6927.59669   7033.04388   7081.13837   6893.93505   7010.63646   6811.45109   7073.86385   6930.34305   7050.93498   
292     6831.73809   7009.38100   6989.76057   6953.76397   6825.05101   6899.51124   6754.57054   6898.39065   6990.63468   6920.65220   
293     6818.95408   6710.28290   7003.70779   6873.38547   6932.84503   7050.47237   6810.19904   6782.71442   6800.16021   6703.92661   
294     6857.98953   6780.79366   6760.21500   7037.94861   6868.47922   6667.83509   6705.05366   7037.16481   6832.27990   6678.80867   
295     6946.37190   6763.57942   6874.76168   6732.41693   6789.95215   6939.02596   6795.01009   6844.44886   6703.57746   6693.26852   
296     6797.14489   6782.12921   6821.43364   6617.17549   6820.42309   6834.36039   6835.20116   6719.48036   6720.99991   6745.04629   
297     6768.59929   6554.66339   6800.70949   6930.59377   6595.85582   6626.16337   6751.61108   6791.02248   6845.83959   6707.01277   
298     6590.49642   6869.98407   6696.48646   6739.49516   6529.17376   6709.20033   6761.75612   6509.18542   6737.03610   6896.84702   
299     6564.43690   6645.79975   6744.73647   6763.13541   6632.81459   6583.31966   6872.46327   6710.58557   6481.90218   6486.25602   
300     6512.09238   6580.13798   6698.72452   6629.63689   6711.89250   6605.69149   6593.76197   6732.00348   6588.69475   6571.08686   
301     6566.38473   6551.63495   6655.94519   6642.40289   6475.25726   6408.99774   6709.74048   6609.54151   6663.42124   6674.40381   
302     6456.82159   6522.46662   6480.57642   6426.83837   6598.88741   6532.16382   6762.49773   6580.93017   6548.93421   6661.04233   
303     6356.03465   6453.80284   6695.18489   6499.99733   6640.72362   6580.02397   6548.25356   6430.78333   6443.30454   6553.98521   
304     6398.24308   6431.53788   6332.45975   6346.43394   6352.23768   6403.35756   6374.90964   6445.91384   6462.04584   6523.45385   
305     6527.97239   6265.59577   6338.58698   6346.23777   6372.90683   6534.98194   6397.62339   6495.43040   6452.46151   6591.33598   
306     6146.04182   6353.60328   6270.15269   6296.20958   6298.79047   6231.92600   6298.57927   6453.40245   6186.49008   6498.75670   
307     6406.06037   6269.89533   6107.90562   6249.14279   6456.09449   6306.09083   6394.81110   6494.58625   6379.03143   6246.05223   
308     6514.76753   6415.46831   6268.30163   6385.26792   6286.05978   6410.65163   6177.68494   6262.01522   6365.16000   6321.78641   
309     6393.80293   6216.33775   6147.54859   6228.84565   6319.91575   6196.11290   6386.95254   6219.24064   6256.13391   6299.95362   
310     6226.84014   6056.24819   6066.53770   6246.10960   6243.08609   6084.13504   6005.04842   6254.53391   6218.37565   6372.13700   
311     6166.59329   6240.10113   6138.57166   6051.83631   6011.03945   6038.98166   6042.29184   6320.99633   6261.09580   5971.92307   
312     6095.75992   6112.47965   6234.80088   6078.22310   6015.02572   5988.36337   6120.45514   5869.35182   6191.11726   5973.54388   
313     6145.89570   5933.67216   6282.04596   5996.03430   6023.14738   5973.89142   6035.33343   6022.70870   5909.37874   5976.11722   
314     6002.05141   5922.25204   6031.48133   6162.93598   6072.31021   5978.63657   6123.51014   6183.96991   5976.60987   6016.50762   
315     5754.80250   6070.96357   6019.07353   5826.19797   5927.99868   6186.00848   5953.49570   6007.31571   6109.55643   5770.24361   
316     5990.24890   6027.47549   5866.96492   5764.71768   5970.95655   5868.95604   5723.09928   5913.01007   5814.19914   5756.21116   
317     5997.47541   5734.88657   5780.58476   5839.16897   6011.93267   5875.17358   6043.78489   5722.63762   5898.39343   5929.51692   
318     5786.47151   6044.75488   5773.42643   5737.15719   5845.76397   5775.90177   5686.19528   5969.04664   5774.52049   5639.49367   
319     5799.90642   5946.93699   5612.44168   5923.92397   5811.60549   5712.13257   5691.94975   5690.71368   5750.66933   5819.01498   
320     5889.03475   5723.61364   5774.12921   5617.87268   5798.73135   5725.14270   5924.20166   5797.06545   5663.59554   5720.53860   
321     5661.82004   5651.70928   5716.95867   5599.66320   5859.34451   5603.50132   5719.86799   5691.60577   5710.40661   5774.44834   
322     5655.11391   5683.93686   5849.00782   5536.02037   5473.52090   5761.11206   5456.37977   5627.79564   5801.84128   5570.06456   
323     5592.62919   5440.72390   5448.89602   5495.63198   5519.88731   5493.02401   5614.07456   5624.83700   5714.58012   5434.65203   
324     5508.17222   5609.52498   5374.76209   5628.65648   5456.25343   5385.78076   5475.27076   5548.12754   5385.22516   5680.06417   
325     5372.88674   5519.09574   5505.00250   5373.54673   5511.09089   5424.00333   5431.31083   5567.31159   5463.60548   5332.54248   
326     5256.57046   5417.48110   5602.44106   5480.35230   5293.15493   5576.70636   5335.74161   5375.85051   5446.74690   5311.21761   
327     5449.17583   5258.61967   5180.05952   5510.71133   5339.45650   5315.15560   5398.54884   5363.89652   5308.02165   5273.50606   
328     5271.27401   5225.56079   5160.64514   5458.07126   5207.23326   5441.53492   5381.38895   5138.52029   5141.94185   5267.42648   
329     5262.04012   5262.01044   5215.31183   5175.55249   5333.70222   5208.39174   5140.92744   5123.90182   5266.95213   5213.71579   
330     5272.34560   5093.85474   5188.48356   5172.00571   5167.44473   5177.50030   5071.34886   5089.07661   5207.50224   5195.43648   
331     5069.45780   5125.30937   5063.54180   5121.71276   5132.57091   5144.20335   5224.21592   5295.56816   5233.50828   5168.69347   
332     5036.45854   5149.81595   4961.93296   5143.73605   5230.71137   5003.76865   5038.39888   5140.15226   5056.05519   5090.39304   
333     5172.30972   4894.29231   4883.41231   4956.08212   5055.98703   4863.71004   5064.21907   5043.80640   4973.66052   5066.59309   
334     5042.06585   4953.88567   4917.43050   4816.60099   5057.31027   4985.31050   4893.09033   4961.98692   5037.77281   4994.29067   
335     4839.56610   5091.84848   4896.73022   4916.71800   5038.39960   4997.00568   4834.79453   4856.42560   5081.14102   5013.58877   
336     4871.47147   4721.06765   4851.15679   4904.28744   5077.03577   4734.68683   4784.04355   4768.34759   4946.58335   4890.33868   
337     4842.27023   4780.50957   4620.46049   4911.37881   4712.54301   4830.92035   4886.45123   5008.11186   4997.69718   5011.16324   
338     4821.38919   4790.86803   4866.95288   4761.81294   4774.12120   4970.18541   4856.78546   4829.30611   4910.01304   4813.59829   
339     4604.98717   4776.87029   4685.04906   4678.13949   4752.90950   4762.26743   4727.53016   4867.51479   4828.15970   4768.86470   
340     4670.34068   4649.90059   4770.96603   4800.36416   4682.77060   4865.28020   4775.11329   4744.78620   4689.81416   4820.90383   
341     4478.81151   4675.86293   4678.92516   4570.45299   4509.15527   4572.35710   4783.87165   4622.94739   4780.73967   4571.96484   
342     4691.29009   4554.47920   4534.43381   4595.32556   4468.82788   4599.63230   4464.09097   4522.35110   4467.65491   4714.79129   
343     4672.52527   4441.41829   4535.05507   4649.18407   4501.67694   4643.41691   4503.97178   4496.94851   4479.30286   4518.85713   
344     4457.17425   4546.17100   4292.69341   4505.68630   4458.94890   4466.70044   4362.33263   4592.18593   4528.05918   4440.83624   
345     4457.12548   4392.73934   4493.52417   4481.08615   4458.98745   4472.49554   4437.92041   4310.69647   4424.23641   4408.06558   
346     4178.23967   4202.40790   4224.07314   4326.40402   4381.97054   4331.76409   4448.82687   4304.34749   4295.57317   4340.54169   
347     4323.07129   4233.88049   4390.32359   4282.97702   4333.09958   4292.88152   4327.67171   4234.69734   4238.73583   4233.99646   
348     4226.19870   4400.31944   4115.86725   4339.36947   4258.85629   4234.26980   4228.31417   4204.46113   4182.69936   4359.08143   
349     4281.27245   4347.05737   4168.65615   4253.81316   4294.98523   4257.40336   4177.48017   4102.89187   4247.78943   4245.34574   
350     4291.04213   4295.10802   4260.34090   4144.70040   4107.98319   4122.54042   4026.94107   4115.69216   4189.70037   4255.20963   
351     4191.35771   4159.89532   4014.05244   4132.04862   4143.46277   4120.35279   4038.28967   4045.69629   4124.19632   4147.38175   
352     4039.40022   4089.20362   4097.55508   4137.27016   4085.94325   4029.24834   4022.08694   3975.35397   3841.09881   3985.82615   
353     3934.78958   4006.26918   4051.19222   4085.80564   4028.36495   4132.74303   4052.03994   4091.72068   3932.06538   4057.11381   
354     3964.97690   3914.40803   4010.34134   4029.71917   3886.18349   3914.29512   3968.64068   4033.92767   3940.50979   4033.91199   
355     3925.68983   3887.87205   3983.38070   3894.60199   3995.11345   3914.82675   3951.15344   3953.79621   3768.71308   3900.45509   
356     3689.89458   3970.72299   3821.05531   3810.83971   3820.85158   3730.71555   3825.14997   3754.32137   3879.47813   3754.31616   
357     3686.69712   3732.53107   3630.45989   3791.95864   3750.87712   3849.10993   3759.90887   3688.27180   3711.37543   3637.48794   
358     3562.57374   3712.14182   3804.78198   3608.77404   3684.44067   3582.91500   3772.43636   3646.02043   3692.20116   3770.46639   
359     3655.59007   3747.18955   3701.24034   3639.30931   3715.89033   3619.22671   3605.60586   3553.86316   3741.26502   3683.97463   
360     3577.42096   3535.33573   3667.02447   3633.41981   3611.60387   3712.76647   3496.37416   3568.87725   3577.62426   3538.21719   
361     3469.39793   3639.47606   3438.02863   3434.21297   3467.63586   3677.20915   3550.19498   3662.84221   3690.11642   3596.34507   
362     3550.31448   3660.40381   3525.67241   3450.23912   3496.17541   3455.86209   3524.35298   3513.57822   3547.86264   3467.37413   
363     3334.55280   3559.83695   3425.17530   3369.12988   3593.85085   3488.21875   3332.93956   3455.85066   3508.56947   3523.97116   
364     3292.20243   3418.40785   3360.78464   3491.04365   3377.99002   3303.95826   3339.43359   3476.86671   3339.27827   3572.81111   
365     3256.70176   3424.60470   3424.04516   3447.52563   3435.58782   3458.54090   3324.28259   3293.48741   3307.25206   3307.21584   
366     3270.90986   3357.46451   3282.49562   3406.94544   3372.56407   3279.18931   3318.22710   3315.60996   3295.26331   3310.56360   
367     3300.50232   3371.75634   3448.37423   3325.26313   3292.26439   3231.47444   3189.73844   3353.91479   3402.11283   3195.56847   
368     3261.54585   3121.85857   3181.39453   3219.72744   3259.85514   3331.17150   3219.54948   3119.11055   3174.75003   3238.43626   
369     3274.51469   3061.92788   3142.86938   3183.16050   3183.07927   3125.37404   3240.14254   3001.24725   3227.42931   3219.60107   
370     3032.80548   3037.68119   3150.88470   3130.97602   3077.05555   3097.63344   3058.80784   3117.29309   3198.40764   3075.01104   
371     3120.80720   3034.90420   3139.88721   2919.02904   2978.85019   3039.82836   3035.47287   3078.35538   3116.80207   3185.94297   
372     3025.95463   2897.36870   3040.14200   3046.80822   2908.80841   3017.46037   2999.99259   3060.56084   3017.59479   3113.84517   
373     3075.89063   3054.72367   2941.25029   2889.45212   3065.34273   2922.28483   2965.45725   2951.95039   3055.86148   3108.19696   
374     2984.93970   3038.32265   2997.97710   2964.67796   2956.78517   2850.25657   2913.04991   2951.42680   3052.24632   2812.28219   
375     2935.90244   2899.50086   2943.99345   2890.36344   2859.92530   2895.01994   2875.72725   2841.71328   2949.22235   2893.88007   
376     2774.34179   2786.84619   2797.07504   2889.92457   2721.23146   2765.85914   2859.01823   2827.17868   2927.79132   2837.47303   
377     2781.44817   2811.96778   2795.15922   2737.29320   2877.11562   2718.80691   2780.41348   2652.67019   2829.33228   2855.74267   
378     2737.63098   2830.81833   2710.79694   2676.90315   2697.70078   2722.25300   2872.03199   2856.05182   2859.55237   2758.18827   
379     2713.97955   2588.33017   2615.07251   2676.68693   2722.78659   2678.77938   2689.91984   2714.17359   2680.37112   2556.87837   
380     2787.58990   2675.72409   2648.34975   2638.91468   2778.90810   2630.95600   2693.15908   2739.03897   2675.32981   2604.06152   
381     2576.75928   2619.77189   2514.16288   2676.05045   2608.60207   2774.91930   2696.75956   2502.22243   2576.05651   2602.57727   
382     2575.48135   2457.00424   2483.01156   2584.07912   2576.93638   2573.07656   2515.34324   2480.09814   2599.85885   2606.25190   
383     2413.35024   2535.86661   2621.82986   2574.98005   2435.68586   2583.54096   2550.70197   2607.53620   2521.09954   2574.28233   
384     2628.78195   2453.77654   2500.72697   2384.10198   2507.37042   2498.24180   2412.63207   2537.38876   2484.22943   2543.31791   
385     2497.18606   2430.98046   2439.30476   2326.02825   2355.45280   2472.47978   2299.82276   2433.27920   2508.07885   2456.43600   
386     2357.17101   2323.42118   2387.17649   2355.09677   2414.12927   2381.96199   2345.92351   2384.82399   2460.99556   2449.21585   
387     2463.76178   2318.97131   2315.70217   2283.31841   2406.74948   2271.76387   2327.34710   2240.21192   2342.37076   2395.57747   
388     2363.33867   2209.53623   2364.33498   2244.51264   2369.01888   2246.93126   2305.35770   2420.02455   2333.34176   2332.84244   
389     2300.39933   2350.23554   2241.96485   2246.12987   2335.59657   2396.07449   2307.17739   2230.26491   2368.23477   2265.13315   
390     2242.46280   2253.25250   2232.95974   2230.12797   2287.79183   2206.72662   2336.76766   2332.34334   2231.00817   2225.91339   
391     2195.18541   2130.98950   2282.14145   2239.86882   2224.15148   2197.41460   2183.92888   2251.91512   2268.39857   2149.64143   
392     2195.53173   2160.73929   2197.69113   2182.58687   2105.62748   2160.30690   2122.49052   2154.73209   2219.87430   2203.30372   
393     2050.96468   2217.66187   2078.87152   2108.62223   2050.38565   2117.98679   2063.03676   2069.66153   2063.77606   2068.24156   
394     2109.78431   2002.22117   2178.73328   2043.71861   1989.72328   2047.62825   2008.16159   2111.23548   2120.68907   2139.91499   
395     1995.84458   2043.96059   2029.11147   2039.74847   2009.46339   2055.27576   2056.72204   2052.98686   1986.81436   2062.32893   
396     1974.14716   2045.33902   2085.62997   1960.39979   2043.51595   2036.86136   2003.07090   1903.42434   2000.30815   2046.57426   
397     2029.00771   2027.33028   1949.70695   2050.15148   1901.01524   1992.10335   1925.69328   2013.07349   1965.24158   1967.43712   
398     1856.92878   1936.99922   1911.10437   2034.26580   1887.59033   1977.21815   1984.28849   1933.74503   1856.79028   1812.50625   
399     1827.46617   1957.17122   1857.73461   1930.80345   1795.69076   1845.97150   2003.07763   1965.50826   1875.57909   1893.00913   
400     1973.03285   1899.97199   1879.92022   1836.99707   1880.48143   1866.44217   1877.05610   1916.13527   1837.32027   1931.98288   
401     1787.17570   1793.54096   1820.11440   1852.15235   1767.45229   1832.42903   1755.85161   1914.45988   1850.44161   1913.42681   
402     1824.09149   1758.28108   1820.75595   1815.99221   1790.22860   1728.92594   1811.83918   1811.41502   1845.05853   1777.27798   
403     1765.61451   1760.48599   1754.14528   1715.69128   1816.04388   1727.73000   1737.34321   1725.67964   1741.32643   1724.10431   
404     1739.98002   1740.85369   1761.04704   1737.73319   1685.51074   1743.63099   1731.59848   1760.98546   1742.75480   1681.78791   
405     1659.40710   1697.10399   1728.53556   1598.42382   1680.21713   1696.09114   1712.63034   1579.19635   1568.33462   1696.40267   
406     1610.30255   1689.06474   1570.15831   1704.01307   1682.98690   1616.10759   1709.23887   1731.82211   1665.72468   1659.44222   
407     1704.86910   1573.26742   1620.13680   1549.68647   1581.17154   1690.58721   1616.97808   1578.02991   1700.63147   1601.88681   
408     1567.99080   1621.11053   1566.14199   1648.23430   1621.14787   1621.24728   1614.80374   1610.98855   1629.51035   1508.72371   
409     1515.17812   1512.51509   1500.49589   1548.72515   1579.23606   1590.39820   1635.13091   1490.27862   1502.30505   1615.28245   
410     1528.91432   1472.67978   1508.56862   1513.82500   1499.18816   1548.46471   1581.64640   1589.39099   1549.84952   1585.69601   
411     1413.46640   1447.86070   1493.49573   1559.69382   1463.38378   1454.88117   1414.07476   1503.98282   1530.29879   1506.75574   
412     1466.40555   1562.65964   1541.33221   1401.90552   1486.61375   1373.62607   1519.70757   1465.20757   1400.11135   1473.75940   
413     1473.57458   1441.51966   1484.72381   1408.48648   1483.68479   1513.66885   1388.00104   1422.06131   1451.04763   1412.44070   
414     1452.41568   1450.83949   1464.15231   1413.55234   1388.85031   1352.72761   1463.76024   1474.80332   1447.05270   1418.86386   
415     1359.40320   1352.64726   1339.07208   1405.97484   1370.05018   1453.10508   1421.11647   1345.37192   1404.19333   1368.68200   
416     1410.81471   1360.32286   1309.98924   1361.72886   1394.09907   1292.58044   1353.89851   1374.83980   1321.30326   1302.83452   
417     1279.41572   1348.32964   1305.07580   1300.89963   1337.78329   1337.31968   1269.77842   1312.14563   1304.82715   1280.12629   
418     1263.28265   1350.21270   1376.87226   1220.70056   1383.56437   1302.39594   1265.88648   1265.98258   1262.34985   1240.96075   
419     1222.64975   1266.36167   1303.11318   1221.94869   1235.96811   1292.24425   1201.88040   1303.94224   1299.66667   1289.80857   
420     1240.78732   1234.05893   1209.56100   1188.11041   1212.11274   1220.52632   1229.53139   1167.52949   1262.21414   1240.16930   
421     1251.29073   1190.49674   1220.25190   1260.96251   1225.76567   1289.84155   1171.31141   1165.86676   1225.46434   1209.96067   
422     1184.67805   1165.92990   1254.80783   1179.38562   1170.46482   1117.73525   1230.13174   1241.40235   1160.97349   1254.42977   
423     1109.80792   1115.75876   1165.86220   1200.77920   1145.52924   1117.94891   1155.79447   1218.32905   1103.21417   1190.59470   
424     1146.94220   1125.54672   1148.02900   1144.36200   1154.38616   1148.44816   1113.33812   1112.27711   1102.56509   1148.10719   
425     1125.04073   1113.81669   1193.95968   1081.56248   1087.23968   1165.28524   1072.45502   1057.87637   1114.20579   1163.06910   
426     1134.12367   1079.17255   1090.67919   1068.65812   1041.75445   1099.39944   1037.95107   1130.87044   1119.99264   1110.30975   
427     1125.50426   1109.09543   1088.92579   1090.83413   1085.23888   1090.71878   1066.96010   1079.68401   1027.09652   1102.39583   
428     1036.06387   1037.47914   1048.64179   1011.67789   1032.21637   1040.69937   1058.98810   1035.02817   1099.75607   1072.87615   
429     1011.56414   1027.62765   1025.09982   1027.05577   1004.68457   1023.75198   1076.77970    983.36854   1070.96367   1069.49931   
430     1022.76892   1030.59549   1024.00482   1047.29071   1038.19704   1014.87456   1009.73962   1022.52101   1007.90215   1069.09853   
431      904.51921   1023.08596   1027.15288   1022.78875   1035.25029   1016.98892    977.96510   1070.65873    946.63584   1012.00715   
432      992.50480    993.28553    929.31925    959.04324    932.37241    925.37393    980.42032    961.79769    970.83892    976.95302   
433      961.15881    987.99700    922.26566    939.72459    894.45250    948.53528   1007.32571    930.74556    949.54973   1017.01087   
434      919.08338    931.44900    966.64609    939.20725    935.03242    928.16215    900.52121    878.22456    912.09755    927.78923   
435      881.83282    870.70024    869.15444    859.89174    899.31013    871.87866    911.88041    897.74252    853.23048    895.45452   
436      912.41694    921.30426    900.81239    864.46848    862.03089    877.98744    922.54598    879.04867    870.73383    898.34147   
437      861.15903    881.47809    856.09151    868.46569    911.77328    855.58615    869.37763    849.40276    863.28795    865.34123   
438      827.14922    897.05327    851.40527    815.91008    863.26084    871.83005    850.39019    830.21742    847.86581    858.02259   
439      780.13050    838.78396    863.30407    796.32012    821.60439    833.06567    795.15972    787.15931    859.40923    852.32959   
440      770.49816    807.94853    801.26349    848.38400    811.25850    770.91857    782.60530    791.24219    809.74593    823.92032   
441      813.39542    775.05931    813.70699    778.34933    754.30628    821.49078    790.61845    770.56729    849.02403    771.30841   
442      740.45298    775.64837    830.13178    768.88165    829.55542    749.67411    787.67045    817.00430    752.39591    734.52872   
443      758.39290    740.04747    740.86728    747.74493    750.03330    748.62152    731.43520    743.69052    801.49190    736.86396   
444      770.16016    727.14076    727.17953    758.22990    772.83365    742.62887    748.57030    746.58894    731.87599    764.45927   
445      710.82298    704.20475    749.09624    743.02856    697.54182    740.41169    675.64202    738.73652    686.68427    747.46208   
446      741.71374    704.08291    742.80615    697.01533    685.25478    696.46345    696.69110    687.65542    679.46779    674.80828   
447      719.44862    644.07626    659.81229    685.49998    711.75511    699.08567    694.30264    713.61943    724.34111    698.00242   
448      682.25328    675.26119    690.39895    696.12999    662.79610    690.66170    733.07775    655.50544    672.89298    658.89745   
449      653.28636    647.76054    659.15999    675.97866    673.77244    638.79060    637.25475    654.75177    708.37170    676.24259   
450      644.96334    615.40031    669.79526    645.22613    666.81569    656.28237    613.70460    621.53957    626.54590    649.14553   
451      654.89920    582.26520    599.45991    622.69158    622.60288    589.35331    598.05360    613.99166    637.75737    613.14684   
452      617.31698    606.59991    643.73141    606.60095    600.52371    622.82019    657.99154    625.58222    616.83640    604.83420   
453      610.29689    625.65726    627.36628    618.13449    590.62113    613.15964    592.33109    581.63836    630.37145    625.77684   
454      543.24616    586.13409    600.60864    573.50024    595.23439    576.21091    593.41042    586.41298    607.16311    579.99491   
455      570.48568    599.02937    603.71359    542.20525    581.66828    552.08202    567.20683    595.98449    598.71243    564.07921   
456      585.71458    580.28375    576.48111    550.39878    556.33375    557.32260    574.84119    573.66111    586.64178    552.12968   
457      540.66262    561.88581    556.42107    542.73620    564.50754    569.87382    528.95879    529.64731    537.34548    543.14335   
458      548.74670    506.83178    573.92708    535.12077    557.08312    518.72726    541.68447    532.52286    547.17072    525.68931   
459      547.56004    526.83050    547.43077    509.66790    498.55402    513.37309    534.04657    532.92560    531.05349    526.80733   
460      472.94107    499.79818    495.31959    531.05638    485.72766    515.66296    545.01436    536.24956    529.51388    525.29665   
461      515.38858    495.33029    491.70569    501.96389    500.23845    531.98768    500.42533    502.39189    484.71668    539.86005   
462      479.74216    506.66618    509.65479    489.94743    484.30364    498.16554    507.57465    509.49392    494.47428    479.72889   
463      459.30929    485.26062    462.08866    486.88199    461.64788    478.30948    471.25044    463.61910    462.52008    483.10426   
464      471.55942    469.34446    447.07373    456.63646    456.60245    500.40165    450.07557    497.50193    462.03736    483.55930   
465      452.63256    451.62689    467.70982    469.96418    459.31916    477.85963    491.07876    486.85565    441.91282    468.36659   
466      461.47811    456.15331    447.72000    454.80563    472.87855    449.85204    454.83598    457.67840    486.09892    431.67808   
467      418.22491    439.52803    451.89986    448.61972    411.45147    463.35070    430.54078    428.70302    466.97388    439.80919   
468      430.71985    414.50937    416.77657    415.84209    433.38259    435.55737    430.32427    425.46849    450.99982    408.82833   
469      411.15669    402.83545    435.48867    401.34294    400.38096    415.01160    432.46079    436.60778    430.89700    431.26952   
470      416.79923    411.35511    403.62280    401.30013    414.18101    396.94770    387.37520    423.83512    404.62284    419.88444   
471      407.78750    403.81634    401.65729    395.25198    389.48294    408.61027    388.97271    413.57952    412.35572    380.16156   
472      393.05886    399.11083    397.77062    387.04668    412.16680    409.78458    395.19968    390.71859    414.71183    399.24814   
473      388.66078    388.96420    391.32694    380.77091    376.63793    411.35826    408.39698    399.15521    415.28515    378.16832   
474      381.70467    392.01549    373.44854    389.64430    380.12637    361.73339    376.42915    389.35916    377.31327    405.95305   
475      373.83459    372.73261    368.23682    384.26174    392.00379    357.38005    364.20845    362.19758    376.89088    388.08625   
476      376.08544    348.10327    379.98677    371.27950    387.17346    351.13548    357.69864    346.72754    364.53265    373.19348   
477      373.79203    357.89714    339.73063    364.46834    366.73456    367.62405    345.33101    367.90331    369.50310    363.38221   
478      359.12347    341.50661    359.45755    353.27470    347.67166    370.67333    329.38621    343.02949    358.20495    345.54291   
479      344.16654    351.36968    343.80798    347.66572    328.20290    365.38513    342.47518    336.66681    343.86127    333.03416   
480      339.95264    325.44977    348.57402    333.67471    344.54617    339.15084    350.55450    323.74891    330.10241    354.21903   
481      340.50014    346.70869    318.62960    354.50674    325.16630    330.24046    327.74465    318.31152    317.23375    334.42090   
482      343.75917    314.45531    309.68012    315.04203    339.07894    306.96883    337.40714    315.63163    327.38433    304.84215   
483      314.51939    303.85305    300.99712    328.67534    324.20159    309.97345    314.69416    319.04524    327.21716    295.98850   
484      300.38513    319.03711    313.01359    317.05537    302.87069    300.67853    320.33588    301.22080    299.20904    313.26442   
485      300.83369    326.79268    292.18832    297.03760    301.99944    294.68574    294.40730    288.96198    306.69255    298.46402   
486      291.41139    300.76416    297.84450    295.99262    292.25080    308.42613    298.68218    298.89006    306.59544    298.20558   
487      304.25796    295.39656    286.15518    297.38454    286.04178    298.14041    279.47341    312.67293    277.60169    272.68155   
488      274.67836    267.21793    291.42628    288.28002    283.28889    276.90302    282.18317    283.57499    271.65819    293.37228   
489      266.50760    283.57188    275.43621    279.46182    271.12967    261.44307    267.77458    276.09745    279.67524    275.49849   
490      282.46932    287.79941    272.66057    271.87804    258.90169    262.88925    284.34569    271.94349    274.76125    284.31781   
491      261.96755    254.89442    277.28272    290.34832    263.30735    271.27612    271.46440    266.99891    270.63417    277.80025   
492      261.98500    254.90532    266.61615    269.44721    253.92057    257.61835    262.07135    257.74473    279.11490    268.78743   
493      260.56387    249.81626    257.11807    270.71954    261.50218    255.74009    263.20132    258.74809    258.67007    257.06972   
494      251.77298    238.17719    252.13845    247.54626    251.80176    244.13019    241.74581    240.20759    257.25646    254.78318   
495      255.46251    255.84653    251.89437    262.99991    244.87143    251.93119    247.30515    250.92340    248.11743    253.15185   
496      247.06809    244.28525    237.87241    248.95776    239.31396    263.32972    241.79914    241.05063    245.21720    252.69120   
497      257.45117    240.98937    242.94687    241.49793    242.11150    251.20170    247.09875    243.89740    245.09532    246.33275   
498      236.69587    228.16552    244.45318    240.34179    236.41458    230.54575    232.16519    235.33803    230.12413    241.95872   
499      240.68444    244.12347    241.17379    233.21617    234.36852    226.31775    233.35190    232.75385    227.08388    232.43574   
500      216.74854    222.21674    233.55367    232.40453    230.14487    224.19589    227.03629    222.36168    239.27007    227.51038   
501      225.72686    229.27237    230.60543    226.80469    229.06029    217.75124    226.49194    212.37518    232.04498    226.76816   
502      223.98669    215.26940    214.09004    233.56421    213.69566    220.68773    214.00116    211.26641    230.13251    209.01926   
503      231.76235    215.48439    201.24665    234.31893    207.35357    213.72880    214.36155    211.26332    219.25169    204.83299   
504      217.26078    210.36681    222.08686    212.07134    219.30412    217.45298    217.01591    219.18195    201.97127    219.43569   
505      206.41271    213.82089    219.49994    214.49772    220.63566    206.40697    206.74150    197.08264    220.38242    211.00475   
506      206.79285    192.06460    215.89293    209.26765    209.94886    213.73225    203.79902    216.70448    213.06414    204.68469   
507      209.48219    202.14037    216.71472    210.19448    203.66126    199.24664    204.83834    212.48312    203.19687    202.33097   
508      191.04522    198.79134    201.91620    201.44891    201.43326    200.36449    205.12638    212.51722    199.29610    194.51608   
509      192.06677    195.18119    199.32269    201.11857    196.00193    188.35271    205.52073    206.30041    207.58765    196.98836   
510      187.17086    196.59631    192.76834    194.58787    191.95017    194.17685    203.89964    182.06716    190.57164    190.82949   
511      189.00965    191.91712    187.29832    194.51947    191.15890    193.99917    202.01891    189.20737    186.94507    189.01166   
512      195.93879    185.71805    193.67402    181.09665    192.07447    188.03480    186.12920    184.48881    182.87245    194.13273   
