SLC Damping Ring Gated camera results.  10 e+ verical profiles at I=0.50mA.  
The distance beteeen each pixel on the gated camera is 1 micron.  
Pixel    Pic1(Counts) Pic2(Counts) Pic3(Counts) Pic4(Counts) Pic5(Counts) Pic6(Counts) Pic7(Counts) Pic8(Counts) Pic9(Counts) Pic10(Counts)
  1      113.68068    116.43890    123.19665    117.00359    115.62945    123.69305    124.84944    121.95889    124.96951    116.75070   
  2      112.02321    118.85790    110.42818    113.10163    124.11148    113.05342    116.34268    117.26901    113.84993    110.19626   
  3      118.93183    120.60407    120.29636    117.70531    119.15863    113.71959    116.78583    110.15502    110.23143    120.60889   
  4      113.45005    122.74568    119.45574    118.30126    110.86796    112.77068    115.27436    115.32976    110.32867    112.51256   
  5      117.88555    119.72322    124.19070    120.00150    120.89242    116.09044    113.06813    112.54238    123.10218    122.82561   
  6      119.66103    123.31067    121.51150    117.86328    113.35389    120.20465    111.18698    121.73826    112.22291    123.94322   
  7      113.51715    113.58889    114.84027    121.39397    118.58028    114.08010    116.76002    110.64383    113.76779    116.91518   
  8      116.00687    119.92379    116.83950    116.60935    121.39179    113.28167    117.23122    115.03421    121.59744    111.02258   
  9      113.61672    122.92243    122.39345    115.52032    122.04303    120.00141    124.03650    110.55294    113.83039    118.72462   
 10      116.33190    118.60650    118.95092    113.26038    121.36718    113.96578    117.59551    110.79865    111.03790    121.39122   
 11      113.15461    110.60634    116.17104    120.61759    123.22316    111.08079    116.68931    123.18678    119.72340    121.25004   
 12      115.20576    121.81559    123.46189    123.48004    110.84497    117.63504    115.58653    112.68317    110.28553    120.05422   
 13      112.49239    113.34661    111.58278    114.99803    110.78742    112.51766    114.97541    120.01860    116.92568    111.47258   
 14      110.74498    120.03402    116.13384    111.69804    116.89824    111.75801    113.20133    110.83006    115.67023    114.73720   
 15      112.77314    110.87118    117.07379    115.60806    115.73220    118.41693    124.81513    110.67881    117.15146    115.98859   
 16      116.42683    118.39766    114.72918    112.82868    112.60832    117.25220    122.79010    114.43154    111.90087    124.50628   
 17      118.80120    118.32380    110.14939    119.26112    118.55944    119.53294    111.95151    113.43551    114.84583    113.08581   
 18      116.00396    124.03265    124.66408    114.22399    120.12677    114.34701    119.77193    122.03711    121.05558    112.25708   
 19      115.54256    115.83183    120.52720    121.62930    118.75309    121.65681    116.59379    115.27713    115.89698    121.79908   
 20      122.45054    115.10448    113.81747    124.52875    117.40196    122.49159    111.30476    119.04756    122.10833    121.90489   
 21      124.38460    118.14754    112.45126    120.95227    113.22309    110.52451    111.47122    112.62052    117.00183    123.22588   
 22      121.35028    122.32358    110.91769    123.72609    120.50344    118.84110    112.84735    116.86080    123.93411    110.57671   
 23      122.69471    118.23217    123.06671    111.39755    115.11536    112.97512    113.35866    121.12803    116.89934    110.69048   
 24      116.15787    120.25114    116.62977    120.95393    118.19819    111.75866    116.07217    121.78814    112.26319    116.25440   
 25      123.10057    110.26910    117.96530    113.50922    117.83212    111.70022    120.83475    122.29142    122.12360    118.09232   
 26      114.04280    120.43728    124.48768    110.22003    113.45674    113.86819    123.91303    121.01312    124.50967    114.13209   
 27      115.83349    114.66799    117.46459    122.68407    123.14845    111.78344    118.41699    114.92761    119.22320    115.27554   
 28      121.29925    119.91510    120.92422    118.83470    122.78745    117.62335    122.13546    118.20063    111.21119    115.47634   
 29      119.94672    121.83297    123.15691    115.25440    110.51031    119.62456    119.63714    113.55041    112.01105    118.29009   
 30      122.01526    111.16115    123.21629    111.68491    122.35696    124.48074    122.84301    122.15782    123.16865    111.41887   
 31      117.64865    124.38772    115.53922    123.74049    119.60159    121.76931    115.34371    112.14576    114.75002    111.61381   
 32      115.34636    124.29206    119.02162    124.74947    122.75968    113.52186    118.28157    120.16956    116.85317    119.44632   
 33      115.93192    119.43245    117.93553    112.05203    110.19045    115.48651    112.41110    118.99185    116.59071    123.94661   
 34      123.84475    114.94850    121.01892    124.61948    122.37967    120.01402    115.76748    111.38684    122.70099    117.86048   
 35      116.23120    119.10533    114.04081    115.89466    124.09177    118.53254    111.06897    116.65932    122.83810    114.82188   
 36      114.21207    110.50957    120.12377    120.18426    124.33603    122.57826    123.97435    116.58840    124.31586    121.44207   
 37      113.27052    111.43788    116.72976    114.44832    110.57836    111.10628    117.57768    115.92241    115.03990    111.01943   
 38      122.69661    113.65945    117.86824    117.43051    115.04466    115.04547    118.63467    113.30591    118.79844    117.79209   
 39      113.22731    123.34291    120.31243    121.53283    123.50708    110.08696    124.88245    119.95914    117.59171    113.65249   
 40      120.63557    120.08897    121.94037    113.49586    119.88074    111.92123    111.11502    118.60844    119.26733    120.15948   
 41      119.12542    110.89447    114.20846    111.35791    111.22845    120.40395    118.35506    113.81686    115.62270    118.62918   
 42      123.84998    110.80240    121.56214    121.18934    112.18544    111.36816    116.44612    115.05217    122.08586    121.49179   
 43      119.53927    117.08523    117.33515    123.81713    117.19469    113.94456    122.27677    122.55673    123.38804    124.46256   
 44      113.85980    120.42359    122.10246    118.01424    123.25121    116.35389    118.43788    120.29221    120.47100    116.65260   
 45      118.84895    117.36492    113.79102    117.56742    118.61417    124.02040    122.85726    124.88677    114.50416    115.68807   
 46      120.40682    120.98181    121.85626    122.03483    117.24448    124.10011    110.75927    121.93296    111.54215    114.71244   
 47      116.41306    119.94620    113.84728    123.50263    110.80513    110.80467    113.96854    114.86398    123.63561    115.65500   
 48      124.26683    117.35947    120.63338    110.15383    124.75979    113.39079    113.72672    111.63624    119.61659    115.36365   
 49      112.15152    119.36043    115.21094    121.71960    113.62633    118.08112    119.41810    122.48116    111.30948    121.79505   
 50      113.19171    118.37791    116.13091    120.31656    121.81766    124.70658    112.27944    114.04601    123.32170    120.02904   
 51      121.56395    117.80054    113.00539    115.84148    111.41458    114.02254    122.39086    110.14748    122.61789    112.70764   
 52      111.35569    124.07914    120.70715    120.33984    122.11621    112.98450    110.55983    118.78098    119.08742    113.61705   
 53      122.36219    118.24282    122.19209    112.17015    121.16916    118.80133    119.09612    111.54586    122.17141    119.57791   
 54      123.46600    110.36241    113.51993    113.27694    114.98937    112.51455    121.74814    119.41516    116.38678    113.15066   
 55      122.22221    117.38346    116.49599    124.18924    110.92297    110.00403    111.32353    116.76506    122.26900    111.89511   
 56      119.80595    119.95051    123.56100    116.95101    123.15597    116.86142    116.80261    123.53695    120.16555    118.79940   
 57      115.39550    117.34161    124.06590    124.17927    115.60140    112.02061    110.88869    115.88966    118.62552    110.27045   
 58      117.82021    116.94189    111.12266    111.01713    121.43670    117.52067    110.02918    114.25376    115.01402    124.71485   
 59      115.65176    122.26787    123.13680    117.41033    118.05584    120.63408    122.28308    124.13265    120.27939    121.18475   
 60      119.66379    117.37716    122.19988    112.55756    123.05299    124.03582    124.47275    117.35803    123.08797    117.05102   
 61      115.62674    117.93520    112.77529    113.75623    117.84875    114.25528    122.74854    121.03822    119.21543    111.51199   
 62      123.88580    110.48281    115.26653    118.83640    122.17598    119.63491    113.96100    113.97710    117.49886    111.37316   
 63      110.07220    115.82949    112.86033    120.43112    122.59127    115.62809    121.69457    119.12273    112.80323    115.13246   
 64      111.06086    113.95633    115.21034    110.69410    121.69700    123.44733    122.14914    117.26373    112.59292    122.59112   
 65      118.48811    115.12387    110.06313    117.61453    112.68877    122.65265    121.03484    124.92528    122.42003    119.79910   
 66      110.47039    114.23507    110.79636    124.69074    123.10816    124.17385    113.25176    116.39324    115.00404    114.51172   
 67      114.42933    110.46234    121.08111    121.23033    112.39878    112.90711    110.10762    122.16208    115.57480    112.80549   
 68      120.37518    122.04911    111.30280    115.24485    112.06944    118.18621    116.36887    117.23219    122.52810    122.53700   
 69      124.94850    117.24890    123.51776    114.16867    122.79597    111.66527    119.28514    115.68178    117.98950    121.78176   
 70      112.69512    119.68002    115.50113    110.32370    116.20694    120.64137    115.79325    110.65978    113.20269    122.06829   
 71      114.75034    124.09430    114.26577    116.68854    114.53137    117.61333    116.36903    117.81380    113.22902    113.39286   
 72      122.87473    113.42660    121.46455    124.70569    119.86238    111.76379    118.42712    111.03056    122.50431    110.22450   
 73      115.59498    114.71414    123.32917    112.78313    112.85779    124.85135    118.46721    117.33450    116.30667    124.20682   
 74      123.88765    111.26902    116.84194    115.50486    113.80263    112.20573    116.54743    118.92720    118.56343    123.50096   
 75      119.91303    122.07286    117.04003    118.96780    116.92926    121.37306    122.19547    113.77051    121.16705    124.05444   
 76      124.82445    120.73521    124.47192    122.89148    119.16038    122.29814    117.72547    119.17616    118.04200    110.10785   
 77      119.03239    120.46361    110.82888    124.16688    114.17426    115.27428    114.39318    124.15177    120.69116    116.93964   
 78      116.44520    120.90412    113.87046    121.01122    118.29149    121.46259    122.82177    112.80693    124.22700    121.90857   
 79      119.46350    118.90005    124.99502    117.60887    122.00373    117.49550    116.97200    123.68661    122.58183    111.42167   
 80      114.84813    110.40379    117.92583    123.80669    122.89167    113.65349    124.72115    121.01601    112.83002    123.33551   
 81      111.50025    118.87919    115.95563    116.46868    115.20302    118.53375    123.16408    119.44884    123.78831    121.39567   
 82      124.41624    118.09935    121.61894    113.20641    117.86456    120.00523    112.27004    118.53567    112.84627    124.70606   
 83      123.78082    111.98603    111.10479    117.79295    124.34243    122.30824    114.33940    120.03140    120.35706    113.28591   
 84      121.82439    117.72286    119.55039    112.62580    124.50238    122.26767    111.15538    124.21004    110.19835    114.08362   
 85      117.37138    117.79323    122.57643    119.15027    121.56025    118.93190    110.57652    118.68987    113.04976    124.49447   
 86      118.78030    112.52240    121.24313    120.44932    123.33735    112.04588    112.92058    123.50834    121.50958    112.07114   
 87      118.01257    117.03940    113.00231    112.93673    112.46303    112.08521    124.85889    115.12888    115.08448    113.96998   
 88      112.22180    115.63285    121.71059    117.20524    121.16716    111.43456    119.46192    116.52607    117.05895    116.46825   
 89      122.72420    117.59669    112.79925    111.22010    122.94848    123.45530    112.91264    112.52328    117.54261    113.27833   
 90      115.44879    113.27677    121.94017    117.46822    118.73221    124.60563    119.36950    117.41905    113.21046    113.57424   
 91      124.30404    121.98165    110.01970    123.04214    121.13834    110.34896    117.94089    117.52965    116.97188    112.36602   
 92      116.41114    110.91699    116.38595    121.42612    123.48166    114.99793    110.10307    114.40208    110.41229    124.45133   
 93      120.92703    118.31064    122.40336    117.32546    122.90273    119.00760    115.02689    110.80832    123.79580    114.45832   
 94      111.38754    122.98796    120.17602    121.93029    112.72468    115.50365    115.01147    121.61790    112.15042    112.30213   
 95      115.82040    112.74065    112.41062    121.13042    124.96864    119.47489    115.28365    122.79391    119.69221    115.16190   
 96      113.28262    115.29122    112.78530    123.16853    112.64807    110.13910    118.82579    116.65866    118.27677    117.43013   
 97      110.45907    119.56040    122.48016    118.32864    112.13399    117.60497    112.78696    124.03779    123.37979    120.97050   
 98      112.56702    110.13287    121.82350    121.68015    121.34621    120.92151    121.67485    122.45878    122.99425    115.72352   
 99      123.04184    118.35822    112.64012    122.33354    112.87596    120.79457    114.64749    112.74574    112.39624    117.72018   
100      120.15571    120.88190    121.88576    121.16108    114.30031    123.61022    124.66099    120.35899    113.38135    119.65220   
101      124.25503    110.75996    121.65811    117.96625    112.41349    114.95514    116.69024    119.80742    110.07361    118.94022   
102      114.00587    118.35413    117.39030    115.53613    115.91864    110.76781    115.25474    117.20472    122.66968    111.27211   
103      113.80040    110.69662    123.86221    117.30711    123.14151    118.45045    111.70657    112.63125    116.72191    124.35408   
104      113.00048    112.13754    124.53191    115.73744    121.83382    119.54875    123.75584    111.38601    114.38825    110.75988   
105      113.67653    119.20498    119.65090    117.88860    121.92529    118.89779    111.52570    120.69728    117.56942    119.75330   
106      122.93535    112.58544    119.54213    111.94321    112.18139    123.75350    124.37436    112.27939    114.11241    120.18935   
107      123.82289    113.85122    115.21279    122.34534    110.29051    124.00466    122.61001    115.72549    123.67269    112.60690   
108      111.46006    119.69455    111.42412    113.42322    116.01791    112.74391    124.53850    118.73661    121.04747    114.72538   
109      122.69159    119.28069    122.73886    113.75887    118.73378    123.22850    124.51224    110.43148    114.94050    118.36953   
110      116.67545    124.63302    122.32027    122.46533    117.71587    117.50059    122.04521    119.44568    114.87783    113.98598   
111      116.91734    116.27875    114.86057    114.00019    118.43880    119.65440    122.99615    124.88698    116.20759    112.32076   
112      123.43824    123.85256    115.60332    112.79600    115.29878    120.61701    113.52950    119.38370    119.13414    123.39797   
113      117.17710    115.63026    116.28732    123.85752    121.02719    118.85559    111.60605    120.39788    121.15277    114.71976   
114      124.32234    110.27322    119.17616    112.98352    118.18774    119.22438    116.75064    122.64825    117.09729    121.68417   
115      113.55925    111.63714    113.77921    112.06370    117.82154    120.19945    113.38441    122.68412    119.57424    120.50906   
116      120.97256    121.39179    122.25498    120.00940    112.72679    110.94930    120.39519    111.28722    120.95296    114.03748   
117      116.38152    110.42528    110.29273    121.24545    120.82502    118.47322    113.99170    118.87226    112.23398    116.12428   
118      120.35730    112.84102    115.30407    125.00644    111.71570    114.07395    124.74707    115.65085    116.12538    120.24764   
119      120.65422    115.27232    120.56079    113.24114    113.63905    120.59559    119.06806    123.27090    116.66574    123.11713   
120      110.16478    118.94824    123.59593    116.63274    115.59858    119.77478    120.55690    113.82516    112.37707    110.85552   
121      118.23421    122.27658    112.84801    123.04307    110.59568    117.24505    113.18174    120.58073    120.27580    118.92465   
122      121.65957    125.01515    112.39732    113.91989    115.31784    114.50589    113.96850    117.40146    112.14759    111.16848   
123      119.09101    111.14260    122.86210    110.69995    115.29387    122.46164    125.05938    122.94016    121.38109    124.56251   
124      121.20018    122.59804    119.40180    124.65197    110.94642    112.34998    121.65316    118.19609    121.22473    114.09372   
125      118.69939    118.97981    118.09737    111.95301    112.25920    124.80226    120.61528    122.51198    124.59541    117.53898   
126      123.15251    123.83531    115.04737    117.98584    114.54287    117.04555    116.57244    120.15019    119.86314    120.01239   
127      124.76570    114.26393    113.14713    111.57533    124.11799    120.58158    113.83741    110.67516    119.15148    112.79143   
128      118.34000    118.92038    122.08568    110.48887    113.40418    118.87932    124.89403    116.19806    121.13743    115.25647   
129      124.24561    120.81449    123.39294    118.65375    118.97443    113.01667    118.82950    121.18310    110.56544    123.70565   
130      114.19348    110.89885    114.49814    116.48361    123.20819    121.64816    118.94631    122.70130    119.07581    114.38833   
131      120.82967    114.39809    119.46332    118.02967    120.02367    124.33245    120.22130    119.35899    110.99081    119.81852   
132      111.61532    124.78179    123.60023    124.71485    123.73092    124.70797    119.75908    115.77926    113.44620    117.85774   
133      125.23319    114.89101    117.83989    125.28573    113.14096    114.55108    118.68540    123.98666    115.94059    126.47883   
134      124.29831    119.84908    115.24776    113.73197    116.52672    121.05665    120.07730    116.40905    112.57477    125.55877   
135      122.72932    113.66805    118.82911    121.91940    112.83626    121.30873    111.70151    119.13012    124.21436    120.47285   
136      113.32295    121.99744    114.24780    121.39917    117.27859    125.24338    111.80772    115.23751    123.21089    121.05488   
137      120.22589    110.86597    112.40320    123.04189    116.55690    121.83344    120.49017    113.60755    116.89186    118.01348   
138      117.85033    124.48153    113.16929    119.21994    126.07492    118.44361    114.43259    114.87343    122.20507    120.97439   
139      112.38828    125.88129    116.26764    118.50478    120.69369    114.08872    115.18427    115.09563    113.50005    123.22915   
140      115.42372    125.08311    114.60204    123.70477    112.98443    116.46969    112.55023    111.23228    113.46800    114.41533   
141      119.07929    116.22607    126.34436    112.12319    116.51203    114.88503    113.86884    120.52836    125.19526    113.63750   
142      119.36737    112.97129    115.46875    120.05295    113.15025    112.81310    115.35059    114.49427    115.55264    112.21172   
143      116.95139    120.53489    122.25137    120.75265    112.34731    113.74877    115.74224    119.40254    119.69817    124.49918   
144      117.55281    123.71691    119.45079    117.14362    121.19164    122.64900    115.20824    117.74994    111.72511    119.29641   
145      128.57513    122.99603    127.04067    120.00881    129.64525    115.57659    115.18866    122.92659    121.42624    117.77123   
146      114.68199    125.73828    129.07682    119.85900    117.87612    123.01783    112.13481    120.71109    115.55292    123.79370   
147      127.13454    123.82031    117.34100    125.54993    115.03630    118.40299    123.24544    124.98651    112.79729    124.82410   
148      119.83546    120.89320    120.66639    122.62530    119.62215    118.78090    122.53700    119.35635    123.95214    121.91559   
149      123.58875    126.98721    125.11409    126.54784    111.73601    125.35115    125.90135    116.68237    115.42264    123.78341   
150      122.87141    121.59157    120.18594    116.32237    125.27597    120.33175    123.37759    127.09528    124.00243    120.46710   
151      125.15211    126.10755    126.96288    114.82613    117.95073    114.99148    119.04451    118.33821    132.18364    123.32140   
152      124.44731    122.20685    128.45821    117.24242    120.06093    123.78295    124.56900    116.07544    121.80652    118.02356   
153      117.33656    113.47027    122.69906    125.77456    122.08537    130.52409    118.11284    128.75703    118.86146    125.44977   
154      126.19456    122.61022    131.08279    125.89492    123.18176    114.71429    123.26150    122.11845    129.61656    137.49386   
155      122.37623    136.56337    131.44810    131.44195    130.80326    127.66372    124.28830    127.05089    122.01110    122.10828   
156      118.62091    119.66940    127.14556    125.57278    124.30017    123.65236    133.03239    125.53075    125.44582    124.17382   
157      124.17603    130.83477    125.80059    120.00721    126.86025    126.38320    125.12142    117.72182    121.80544    133.71189   
158      122.16730    114.42524    121.86391    125.07352    131.59864    123.80438    135.45195    132.48167    117.69141    126.05146   
159      115.35085    137.45894    118.54870    120.53162    131.66441    130.39850    124.93166    122.73593    126.58409    126.97929   
160      126.50862    139.96857    135.63869    131.93766    130.40319    135.44637    124.31822    120.05064    140.18063    122.57534   
161      133.39606    134.81810    124.76581    119.34118    127.41143    118.76745    131.13849    131.80345    120.91035    133.22768   
162      123.40599    127.74961    132.52690    135.79198    140.67649    148.64912    118.39009    130.19803    137.48356    131.72742   
163      145.38983    133.91987    148.52946    122.97524    142.79098    129.79549    125.27492    141.60272    128.32631    132.40478   
164      128.91821    138.49568    134.54838    119.04544    122.46995    149.54895    121.45452    131.64630    129.67154    136.98746   
165      125.85156    145.33935    137.84069    145.66711    120.40110    119.53922    141.75380    128.44771    157.43077    137.21762   
166      144.08922    122.85388    138.84372    137.73868    135.48945    141.79360    139.52177    150.74347    137.09938    145.43657   
167      148.63111    127.01831    122.82661    130.60978    142.53302    142.52711    137.02908    156.84701    124.68677    153.18111   
168      129.58323    134.41296    137.63963    149.86985    124.07713    131.68101    157.91437    154.12583    138.66096    129.21575   
169      147.10718    138.02047    160.80849    134.39814    141.22267    161.11977    135.85403    148.91771    151.08400    125.10807   
170      165.26184    133.25333    156.62901    131.66381    152.09405    132.70246    165.67837    147.85909    159.27611    140.30118   
171      140.96872    139.36620    134.90935    132.81992    179.96602    159.01459    144.75865    148.23158    139.99557    175.74883   
172      138.04032    157.30567    147.56794    156.24298    154.51824    133.36111    172.56533    160.83774    158.38252    129.98807   
173      134.42343    133.30640    150.89565    145.36130    160.59720    141.14995    172.82139    147.85076    144.31727    134.49587   
174      153.26548    160.85367    158.61612    143.45316    150.04592    161.39499    177.64835    175.64011    149.31543    181.97919   
175      181.02757    155.56408    205.68483    182.03915    155.85052    180.42663    157.80930    160.98236    154.40508    165.44552   
176      143.68326    194.21973    175.51547    152.36822    165.38497    151.61777    141.06355    141.48527    163.09762    146.79646   
177      153.82293    182.66377    198.95201    169.11385    161.29763    187.62563    175.19030    177.70692    157.75680    199.99816   
178      190.75652    205.20664    158.51131    195.56093    215.64326    175.41747    199.81932    182.02735    172.85988    203.99524   
179      191.05548    173.22129    159.10977    172.07981    205.81612    212.99868    166.87056    162.62787    183.95714    216.69143   
180      168.23453    168.91295    191.10628    209.27951    182.87126    185.81463    167.35866    192.59003    187.71732    179.71056   
181      177.28456    206.42885    194.54004    196.33828    211.46805    237.71992    171.08203    172.44308    203.96860    179.62304   
182      229.71127    168.18491    202.51109    220.25454    228.74807    205.24592    188.44317    192.24112    168.90799    201.84332   
183      177.80905    234.06394    266.47622    234.45901    218.47669    183.04178    218.48211    228.88842    217.39282    247.87728   
184      266.69677    185.93374    186.71416    263.22947    255.35100    186.61316    176.91307    214.23228    185.54571    286.60218   
185      256.32679    188.22974    211.62891    249.74525    198.00720    238.97634    268.23808    174.19120    214.51401    258.68717   
186      252.29549    225.16602    226.59456    258.09677    283.26733    232.27809    209.23213    261.96223    196.69070    260.24330   
187      199.16701    276.59621    269.13745    245.57702    255.24217    289.60465    259.00389    243.61828    299.60262    253.95477   
188      271.44241    240.49424    191.58137    237.27976    220.81071    259.95440    210.56989    250.96723    209.07543    273.25961   
189      233.68423    209.75061    286.82897    213.92632    242.28116    206.32643    305.38695    312.40471    211.38292    325.15047   
190      271.40519    246.58308    254.47218    231.77123    320.98925    235.55418    208.36122    304.19232    264.91780    289.73056   
191      279.43931    241.94505    242.14076    238.37370    268.67556    278.37503    227.02140    313.59342    299.40044    244.14857   
192      300.45669    300.19314    316.00234    295.83198    296.87208    278.45742    321.05691    282.28733    332.34148    329.54998   
193      283.09671    275.83374    334.08275    316.85210    387.02401    282.04551    365.05873    265.17040    320.64785    291.49821   
194      411.86916    284.15009    405.81572    276.75381    321.51552    367.59510    284.33359    272.53237    306.81628    384.00314   
195      340.26809    293.37756    318.79609    391.37896    377.94268    437.73472    317.96214    347.28278    345.53114    378.60531   
196      413.71201    291.57753    360.18223    395.14036    374.18425    308.63293    321.74557    396.96945    343.45217    346.86805   
197      353.71504    411.36785    311.13487    311.23178    389.11068    365.23544    367.55829    467.52689    299.31053    290.63600   
198      404.65258    399.21652    336.65628    393.46424    410.03386    430.27969    419.18063    424.32053    368.64120    418.90525   
199      391.88950    362.29198    428.56294    398.64843    362.91333    423.84241    412.87049    351.97499    444.12163    471.73377   
200      431.98151    348.10727    462.36180    458.47985    429.94805    449.02721    510.06713    447.05428    474.08436    460.04365   
201      376.23066    559.51618    468.64579    385.43868    379.48298    490.91519    347.13286    391.81549    384.54160    455.77946   
202      525.19782    401.86937    546.22885    545.21532    480.07317    517.19003    530.09813    394.76596    542.19301    455.42813   
203      400.23911    536.84018    425.17073    517.82058    479.60828    525.18550    417.68277    499.41720    584.21112    437.45991   
204      557.08229    415.94587    543.76342    479.27964    395.22211    505.18137    585.71251    382.45766    413.23156    566.82265   
205      556.88617    488.71095    449.99145    511.69454    585.37260    565.03695    607.79657    422.18609    522.02109    515.61689   
206      534.70397    459.80285    636.25805    447.47996    582.14685    533.79652    537.58776    532.14436    495.75816    531.25677   
207      650.12910    582.09298    529.17915    521.91494    610.05703    568.28504    468.73037    480.99703    548.99804    475.45986   
208      558.80955    665.37756    618.99567    610.86043    471.27879    737.04723    617.67464    594.90915    546.32363    588.68049   
209      719.30838    604.69075    624.91400    752.71475    660.11168    590.62269    643.00237    530.85002    654.46557    626.42836   
210      679.19407    562.77360    753.88042    562.40730    620.13799    639.07212    672.72052    659.64851    766.53282    705.79378   
211      782.27317    775.56161    683.04043    663.47661    658.52932    661.40303    719.19681    683.42776    725.23678    723.12093   
212      639.13674    771.21488    600.98512    701.63129    668.86586    801.36694    666.32143    745.99144    650.97100    789.37260   
213      710.37589    745.49316    799.85201    835.74551    752.83522    767.99655    626.84947    730.89016    803.61911    676.12323   
214      814.64412    765.71315    689.27909    696.93903    735.68038    711.42443    678.31089    754.78324    827.67230    786.24147   
215      916.09636    737.55989    789.63570    835.27352    928.34576    828.28813    889.81712    808.09666    817.93191    692.85763   
216      856.65046    843.46663    896.17983    901.79241    823.43951    885.16465    731.68998    897.82107    827.44882    784.18982   
217      907.53917    957.23721    960.14427    728.12049    753.73553    782.06782    828.15195    942.17940    855.84775    809.56115   
218      882.15088    988.08575    934.26930    820.05019    873.84205    877.96474    971.80288    908.77635    775.77673    965.29107   
219      919.61349    943.13726    953.65218    935.85677    881.77330    877.73818    935.73262   1002.40437    856.46175    967.61023   
220      812.96743   1086.20314    901.03532    827.15731    875.53572    954.19858    956.17863    860.14739   1015.31316    997.75259   
221      945.34375    929.38083   1080.44366   1030.94577   1082.17353   1082.54621    905.46259   1042.85933    932.53054   1021.45801   
222     1124.13129    977.57420   1107.14311   1073.76859    934.74026   1132.94833   1005.56475   1001.15786    979.54935   1031.98144   
223     1052.00637   1021.25566   1038.79321   1073.82794   1022.29303   1035.03599   1085.85048   1122.41057   1029.48282    955.40136   
224     1165.85339   1028.72307   1070.92803   1089.64765   1100.11837   1075.56664   1133.73622   1066.49520   1142.67719   1176.82077   
225     1124.64816   1258.69790   1124.11522   1241.67668   1122.50744   1077.22257   1125.03694   1228.15431   1210.05132   1142.71404   
226     1129.27395   1154.70306   1272.72583   1266.39372   1318.10530   1046.73853   1251.65315   1238.20409   1217.25619   1203.29133   
227     1296.56012   1190.70934   1279.04166   1146.45236   1210.30835   1123.10433   1230.04890   1243.62009   1218.03664   1210.99884   
228     1148.45611   1175.78079   1272.99455   1231.43285   1245.35951   1251.04488   1146.22667   1190.11430   1300.68789   1281.86963   
229     1311.90850   1243.17751   1323.99460   1284.52886   1241.90836   1245.94591   1350.77453   1203.12939   1304.70886   1318.13974   
230     1384.93603   1332.77928   1292.93336   1336.00446   1334.25756   1379.87474   1271.75012   1333.75157   1176.05626   1264.59012   
231     1462.15180   1464.12388   1216.97006   1325.98221   1363.96327   1299.01708   1405.47684   1385.63387   1282.54968   1370.85706   
232     1461.66807   1313.50472   1464.26862   1293.37283   1474.60864   1334.75663   1363.68658   1424.91453   1406.82676   1327.02849   
233     1354.52504   1456.26207   1374.80177   1452.95856   1499.56716   1461.26766   1426.95473   1353.34289   1329.34613   1467.79457   
234     1395.54062   1413.47923   1456.00046   1470.60506   1535.46425   1488.64466   1349.65097   1414.16825   1417.24299   1486.23578   
235     1505.63911   1480.85876   1389.60104   1494.23145   1577.75530   1491.54102   1377.72855   1443.46943   1506.21019   1459.23893   
236     1489.11898   1567.88865   1443.18687   1612.30891   1606.98445   1440.17103   1446.59154   1491.68023   1545.76040   1548.84172   
237     1489.70376   1551.35474   1603.52152   1588.74089   1455.88252   1611.79246   1616.56009   1620.19527   1578.59071   1460.72241   
238     1546.09195   1643.86348   1615.94055   1604.30502   1633.71257   1581.27946   1631.14152   1578.83342   1530.24805   1605.73647   
239     1723.12627   1661.87834   1688.78279   1581.29913   1528.56883   1703.81181   1603.59151   1604.27684   1671.74805   1686.58378   
240     1623.82223   1699.76710   1638.80735   1689.51254   1596.31559   1720.66064   1673.09347   1610.82891   1669.20228   1688.56524   
241     1725.29653   1679.72005   1691.62227   1660.84306   1731.92763   1729.71384   1711.86762   1628.68384   1650.81615   1678.97424   
242     1781.83198   1745.17774   1738.59756   1737.96642   1772.11426   1716.27474   1628.47351   1716.60872   1636.89475   1756.30286   
243     1724.60301   1721.60627   1718.65756   1715.66348   1785.45809   1742.32233   1774.92534   1772.41990   1663.36516   1764.32819   
244     1838.14829   1761.46918   1736.00585   1792.49314   1716.34664   1779.10529   1760.97237   1723.97421   1743.06502   1732.57608   
245     1839.08578   1809.18768   1749.66231   1815.58182   1740.17342   1832.27490   1779.06936   1781.67221   1836.47674   1723.22054   
246     1799.30044   1815.07330   1768.22423   1742.37443   1797.26407   1803.18953   1773.31829   1797.72259   1768.41280   1838.23861   
247     1828.37522   1764.08894   1762.20754   1822.81916   1872.77312   1849.54607   1850.05381   1834.64786   1796.86781   1827.12385   
248     1856.60558   1833.08048   1888.42612   1896.43672   1830.09285   1850.04372   1851.03021   1872.80367   1834.45036   1847.65800   
249     1864.10200   1908.35449   1858.05920   1811.45504   1858.37481   1891.64465   1835.68590   1845.09844   1887.38566   1879.08481   
250     1893.61083   1882.19245   1924.60248   1857.88309   1909.06451   1919.73682   1914.90659   1920.66086   1879.68591   1882.74866   
251     1903.80609   1930.00290   1883.93671   1896.73669   1920.70720   1917.33315   1857.85918   1889.10477   1876.85694   1864.00141   
252     1917.79403   1907.05353   1894.55795   1949.45333   1898.72939   1886.43799   1894.82372   1923.40181   1902.24157   1896.31899   
253     1939.24063   1898.72819   1915.79001   1920.81024   1901.98428   1910.74554   1897.54345   1936.47560   1882.50063   1938.14095   
254     1906.55692   1960.83350   1910.13319   1905.34421   1910.12737   1953.52174   1909.28983   1911.15644   1922.68732   1953.52341   
255     1917.38179   1920.99440   1923.31738   1942.52891   1954.37203   1920.97166   1924.53125   1939.11356   1944.13191   1931.60843   
256     1960.14978   1939.11910   1945.10409   1963.09744   1969.81747   1952.73513   1972.80930   1940.30736   1915.01175   1945.90835   
257     1931.20958   1931.90765   1979.16597   1953.43317   1955.12748   1926.93621   1932.19209   1943.84142   1952.37614   1925.50254   
258     1932.79813   1924.29260   1929.09045   1964.69603   1943.71400   1932.33075   1954.80781   1933.64418   1961.56853   1940.39673   
259     1922.11793   1917.59936   1921.63731   1921.82546   1912.05428   1971.68055   1972.83259   1958.71385   1951.28535   1938.50350   
260     1931.47036   1968.44751   1939.31112   1948.55811   1960.72050   1927.31814   1945.26790   1920.68737   1950.79778   1918.33508   
261     1953.48751   1900.64161   1951.86300   1953.50151   1925.13392   1934.14625   1921.02570   1938.54491   1933.51142   1940.41415   
262     1918.72276   1936.78964   1919.49926   1946.61472   1945.41844   1927.82682   1913.52030   1925.51198   1900.50680   1887.13037   
263     1935.15797   1918.60716   1948.60404   1885.04364   1925.41104   1882.75353   1957.34942   1939.89707   1955.29535   1931.15429   
264     1905.61065   1926.86255   1912.01094   1892.81332   1880.38952   1855.23284   1913.64404   1908.84201   1894.50881   1876.32694   
265     1882.95752   1858.56034   1880.22695   1905.65647   1891.40522   1930.89387   1868.82361   1907.08211   1878.34248   1859.88823   
266     1900.27622   1895.37026   1864.73207   1878.70352   1867.57034   1887.44470   1903.62667   1879.54496   1882.68883   1844.93905   
267     1873.58772   1871.08036   1844.93719   1850.86590   1875.60275   1867.63880   1862.20653   1834.57558   1847.67604   1863.45396   
268     1882.85449   1823.30090   1864.95567   1839.68877   1849.96269   1876.50014   1808.24928   1884.34378   1869.14471   1889.96557   
269     1861.82323   1832.09952   1820.66725   1814.71547   1837.02106   1829.56736   1802.76920   1822.86304   1847.32262   1846.99335   
270     1790.55381   1821.97690   1825.48352   1798.44292   1807.16390   1755.14767   1804.70748   1740.96417   1807.25564   1820.86861   
271     1757.83621   1790.12791   1767.14183   1784.73177   1779.72533   1829.18344   1734.69614   1798.76350   1795.59869   1767.91982   
272     1737.46896   1798.73925   1723.11652   1702.67357   1753.91449   1805.56267   1799.96919   1750.46789   1720.43080   1774.78275   
273     1792.13317   1680.79540   1706.84372   1670.51624   1737.45052   1712.20770   1768.42190   1702.18878   1661.62661   1740.40513   
274     1681.80439   1694.18408   1728.56798   1657.20068   1656.19672   1756.14683   1705.65036   1612.47508   1678.92141   1703.83729   
275     1697.62898   1649.52351   1718.25186   1718.28982   1735.56327   1647.55615   1727.07930   1593.20596   1724.66196   1613.98693   
276     1555.08951   1594.47383   1667.90019   1628.91156   1603.96492   1624.20975   1614.90481   1636.80165   1643.39109   1564.61586   
277     1598.96607   1634.30973   1619.83706   1658.55953   1614.65310   1631.56940   1587.68445   1600.78257   1582.46522   1657.14560   
278     1554.18452   1549.15095   1541.47003   1592.17874   1632.94130   1625.85166   1639.17520   1607.35500   1609.88234   1532.95492   
279     1557.70936   1561.98291   1569.28452   1533.43607   1521.67526   1595.44818   1591.17547   1572.83785   1582.31587   1566.68902   
280     1600.12108   1541.04437   1553.01570   1469.50770   1561.20564   1583.82775   1464.96822   1554.76544   1485.47636   1500.02163   
281     1553.99720   1432.46839   1497.09831   1549.39295   1477.37447   1459.99025   1488.48062   1499.33012   1504.91521   1544.23067   
282     1494.12813   1544.47323   1444.53624   1422.29243   1398.08424   1435.76830   1414.75977   1401.37788   1512.20047   1542.77229   
283     1504.55383   1466.56401   1467.66156   1513.86401   1474.06254   1318.69415   1507.35128   1436.31368   1327.36769   1315.27140   
284     1289.19884   1368.42426   1275.59975   1411.15310   1353.31938   1374.94451   1343.77266   1407.03129   1526.48217   1343.66267   
285     1278.76572   1405.10353   1318.86283   1452.85295   1449.75015   1406.01618   1392.17846   1293.97937   1364.16992   1403.53662   
286     1365.86457   1337.31526   1306.16537   1274.85011   1321.33476   1196.32152   1277.52576   1344.11108   1307.02431   1364.99284   
287     1213.16558   1239.29014   1232.86044   1206.10678   1310.84090   1296.98250   1322.51456   1289.84031   1416.13510   1318.77776   
288     1260.44283   1311.54782   1186.02032   1224.48760   1279.21312   1347.19401   1324.57521   1236.04344   1162.46601   1225.93081   
289     1201.68286   1197.54070   1174.70170   1324.85949   1084.52370   1342.90966   1305.08508   1115.47483   1140.77983   1187.83637   
290     1179.69041   1067.34167   1144.38744   1114.40100   1084.66024   1170.93775   1137.66196   1181.80398   1148.95541   1157.78644   
291     1231.53440   1271.21377   1133.73065   1180.09375   1162.97126   1026.55796   1118.52246   1222.40521   1282.24490   1247.54306   
292     1141.56142   1185.85460   1157.50518   1092.46956   1131.36805   1069.38940   1222.59258   1100.68243   1095.53888   1146.47755   
293     1019.06310   1088.00956   1122.69220   1091.31192   1125.45549   1106.74514    983.70666   1163.73021   1118.73157   1166.72921   
294     1117.56260   1044.00529   1104.43597    936.82898   1015.36380   1137.05503   1146.89229   1070.62290   1029.10752    915.62854   
295     1022.20707    917.20396    863.16658    932.43328    974.84603   1107.41801   1075.17564    980.35962   1000.23651    905.91146   
296      867.83717    960.47489   1036.02037    963.30340    924.39097   1096.28309   1008.16621    955.10793   1073.13103    950.68538   
297      956.80879    897.87122    894.06065    924.65936    819.35342    918.96029    768.02734    891.88141    817.62962    802.36929   
298      892.94175    738.34764    854.46582    856.54253   1053.59433    878.09630    828.88530    896.09926    981.71328    783.27793   
299      855.32653    730.28221    825.82142    871.84148    931.72925    906.13940    913.95282    757.18021    775.68637    882.33934   
300      696.35558    851.53369    802.35562    871.78037    826.80000    823.50302    863.23152    768.84583    915.35642    757.26778   
301      867.45762    789.63949    709.93739    784.97650    744.05195    773.95748    860.88170    931.86146    787.33819    676.99988   
302      740.84791    801.41866    838.86715    691.22320    872.10621    832.20039    763.43523    713.84299    623.22397    872.24185   
303      598.71465    674.68184    688.02558    634.00513    868.75583    702.80775    733.35021    638.88234    811.70225    679.59354   
304      705.26822    710.29221    663.01845    729.53746    730.67162    673.49181    740.50351    604.81178    719.96870    712.74846   
305      707.00135    644.38771    782.33659    665.83782    685.17434    786.11644    761.47382    786.66311    609.51641    734.28936   
306      659.43024    763.05099    607.86087    691.54974    565.50066    649.18650    643.05108    646.06628    719.91960    687.20792   
307      678.50912    723.96736    689.29134    693.30277    754.86027    589.63651    532.58106    657.28235    616.96745    749.26210   
308      550.81983    706.32319    602.89108    504.10405    703.07172    528.21233    739.29098    614.11314    541.41399    530.90604   
309      604.25754    537.75358    601.67823    482.23496    509.97701    577.83541    582.09473    605.48727    553.24975    615.78253   
310      479.76196    532.33657    452.74823    546.82166    496.27416    570.11810    546.94298    605.14006    633.23339    533.19723   
311      422.12215    603.44973    453.64480    600.01423    533.49821    414.08052    485.03547    463.45281    464.47239    523.29193   
312      437.92877    479.64988    574.60143    432.94836    466.98212    409.98263    538.53948    472.51461    537.91408    585.92043   
313      542.43402    445.02606    553.87835    411.63003    454.20842    532.83214    408.45551    494.95604    438.38449    439.08978   
314      369.08102    441.51807    526.58817    586.07256    399.30909    444.56199    387.12070    380.20445    481.11752    549.32895   
315      365.89500    381.23952    364.97032    549.04409    403.73182    466.16361    411.28182    506.33841    483.86856    490.35765   
316      515.94610    408.36994    422.93714    491.48280    353.17520    378.65299    416.54407    434.08861    372.94171    460.76642   
317      463.36069    346.56811    381.39655    404.67901    324.41126    381.57536    495.34625    380.69687    388.70944    365.02911   
318      335.14733    353.58979    422.46796    454.77624    326.27864    313.89034    469.62821    497.01330    439.40556    324.48184   
319      391.73887    353.75362    361.87589    421.51124    392.23876    464.28831    382.45919    413.94863    384.51697    336.53566   
320      286.72436    362.67808    361.29304    416.81287    364.26328    438.54911    364.02151    456.98603    401.84638    294.07290   
321      280.93234    296.06679    309.22088    351.88842    371.53826    300.07835    386.44168    345.13737    348.09770    429.94900   
322      299.51601    326.81535    335.42326    357.93726    347.57691    310.16857    269.41134    424.40027    308.96639    322.10066   
323      327.58022    380.82286    281.89067    274.51473    346.70755    354.98153    401.67464    284.95347    333.23300    321.96647   
324      289.13318    353.33404    248.65677    304.10538    281.10656    302.73718    289.56643    291.40410    283.77976    292.50116   
325      360.82689    272.46625    260.33255    354.43127    254.21271    262.57672    227.74345    284.40933    281.97417    344.62926   
326      262.58803    317.71383    245.18482    327.61569    300.49220    283.95550    279.58041    279.03760    289.67455    294.13597   
327      288.54291    192.39908    283.28310    268.33021    286.68221    261.22854    282.15149    217.63146    252.01793    314.11812   
328      281.92448    226.14686    243.99338    250.44371    256.58044    290.68287    229.03254    237.10671    313.63725    262.21356   
329      295.37912    262.59396    215.07427    219.69310    221.25756    222.41065    277.79948    246.11723    243.38482    247.00303   
330      243.15749    237.81464    183.05666    266.56662    208.02772    200.40727    250.24800    207.66340    230.52169    204.59126   
331      275.07498    286.04400    234.91306    237.79373    255.12858    184.88606    220.98897    242.98393    213.00814    254.65925   
332      266.74582    216.99290    253.04886    226.65033    213.23575    219.85040    226.07159    256.98051    182.06705    212.08716   
333      244.18739    241.79083    207.10565    205.96052    259.86886    219.32155    225.43951    218.25141    189.29704    197.53946   
334      187.10544    210.66430    179.22042    174.90043    189.20627    237.90845    189.59665    245.51627    190.37483    171.64726   
335      182.20755    219.10128    226.87926    230.76118    231.81080    209.88332    154.32317    217.09660    205.04180    197.42909   
336      218.01943    163.17900    194.68589    174.53153    186.34940    163.73072    201.55754    196.42021    209.62740    159.02779   
337      191.06540    176.56834    207.89237    187.71678    207.76221    171.55667    183.11197    193.60084    158.22223    202.37860   
338      202.40831    162.54744    166.97367    162.66625    178.21388    169.67825    200.58241    207.56491    164.34929    151.96626   
339      153.56284    185.81244    169.26143    167.01258    191.54316    179.14148    190.33303    187.30162    179.36070    177.23374   
340      164.05260    160.94759    145.91127    195.12059    167.69950    139.53085    141.58362    200.07762    165.68685    180.07218   
341      163.78169    184.88572    169.65582    165.56167    172.28926    162.77842    161.56263    140.01284    163.48759    155.39188   
342      155.02437    157.36495    145.95066    170.92383    202.59094    141.55775    182.39379    168.12732    146.90058    188.30594   
343      154.19695    163.25988    178.55833    160.62158    161.74891    143.47763    169.32964    138.28942    135.40654    169.86229   
344      135.78655    140.22462    131.04022    153.40049    163.17132    176.04176    160.27665    133.62758    176.22135    154.00562   
345      163.11447    172.57817    175.29233    140.49141    159.45030    130.45924    168.54314    138.91874    161.70029    138.69780   
346      145.19672    148.82627    172.09747    140.19545    139.93699    131.02933    142.48620    132.36984    165.74143    157.97274   
347      131.19688    158.71615    142.01529    148.92143    136.63629    142.38269    153.14209    139.65040    126.82781    168.93721   
348      130.94277    124.29844    131.62218    146.09121    136.10863    158.00341    132.50482    158.76865    125.81005    153.61889   
349      141.37483    158.89172    158.62630    168.44804    137.40892    136.73864    125.43394    164.90809    135.08196    131.21329   
350      144.99877    138.62779    149.42436    135.09859    143.77042    136.86518    146.06461    151.03919    129.55234    149.32577   
351      151.37354    144.97423    131.24289    146.03633    134.68418    133.29227    132.71311    138.37714    137.47087    129.01851   
352      153.59594    124.55056    140.88721    141.14818    138.45436    135.43725    151.82090    125.33739    124.12801    124.89223   
353      151.02312    129.45260    131.51147    144.78886    131.57990    125.92393    128.27173    141.32913    124.12130    130.64510   
354      123.40522    136.62589    124.66175    115.94148    121.40749    149.19805    127.98069    123.46589    121.41645    149.15059   
355      124.45379    135.96456    144.16598    123.47366    124.56169    122.21351    134.32091    135.20570    128.83905    132.70165   
356      139.20744    120.85792    127.67344    134.69411    128.54461    126.09135    122.96260    140.78016    132.53839    131.70658   
357      135.14300    125.82361    132.79937    131.07303    126.04344    139.66859    122.20336    134.25169    120.22712    127.15835   
358      117.64250    122.47040    114.77205    125.21535    132.53586    130.74403    128.54452    127.78530    138.28670    116.49761   
359      132.75089    127.02765    124.41391    126.80125    116.34062    123.63953    116.95252    120.93549    125.13170    137.27040   
360      133.15773    130.44775    123.80730    119.38525    113.25547    122.19767    124.91125    122.98711    116.71453    133.61865   
361      123.90253    129.23890    114.14726    139.10160    125.17497    122.74311    120.50068    124.47747    119.29704    126.77520   
362      117.86554    133.88162    116.53809    126.10934    118.14637    131.15017    118.29154    116.22270    121.89712    129.99542   
363      124.09612    126.49624    119.64076    120.48686    127.32425    122.15981    118.24984    133.04387    115.25395    126.64323   
364      115.69529    126.18530    115.04012    115.48015    123.08739    126.74587    122.23895    122.15800    127.82858    117.37811   
365      125.44650    120.38244    113.99471    132.08155    121.50565    122.51957    112.90172    125.93352    126.29850    117.02546   
366      122.66655    115.18805    116.57168    125.42237    131.42650    123.00867    124.71940    120.56294    127.29839    119.66342   
367      116.84139    126.07141    119.93560    112.35709    120.64131    120.33509    122.95906    121.10454    126.36979    115.86986   
368      122.97521    117.16914    114.15710    128.56168    114.27757    125.53760    115.52116    126.76057    121.12398    116.86574   
369      124.10001    115.37669    121.09781    114.92952    124.56294    121.34528    125.70807    117.19189    127.48669    121.24191   
370      114.00174    122.51230    125.32361    122.41966    129.08863    126.74731    120.78310    117.14769    114.01559    128.96607   
371      122.08104    116.80788    117.32374    118.62667    116.46936    115.74869    122.87756    118.34592    118.77219    117.55944   
372      122.32451    124.67957    115.11382    121.17090    122.79292    123.63156    126.19734    117.73470    115.13373    119.07261   
373      121.77993    112.82453    118.61659    121.89293    126.06057    127.02814    119.55840    116.54329    117.90516    125.46702   
374      113.17589    122.25277    121.60706    113.86088    118.40296    111.84604    114.94575    118.90490    120.20183    118.63969   
375      112.24657    110.78439    113.56452    119.36476    116.10360    118.78957    124.07442    125.84231    111.38696    119.77466   
376      119.53353    112.49483    117.10096    115.74436    123.77522    123.82154    113.35031    118.35094    121.46860    121.66473   
377      121.53112    112.72636    124.08506    117.08315    112.14890    122.07857    115.70062    114.18933    116.34851    120.78019   
378      116.07292    119.28383    117.18748    113.59239    110.58005    113.55116    116.89057    120.84641    121.71589    121.24209   
379      116.09266    113.62512    112.29009    119.32626    115.17773    125.14196    110.55490    120.54486    118.60236    117.49162   
380      122.45356    122.13531    112.45904    117.34383    120.13279    124.72354    122.84983    118.47467    116.84408    115.70231   
381      116.15914    125.95026    110.77920    118.98147    121.57730    114.31020    112.87830    120.47259    124.54342    121.83212   
382      119.84349    111.64605    124.63314    118.27416    125.78797    113.48164    117.42514    112.64884    119.71604    118.03149   
383      120.71238    116.70069    116.37232    122.61097    125.03422    120.69572    117.20538    115.43150    119.90870    120.49597   
384      124.14965    112.74438    124.09513    116.41705    115.17778    117.55805    120.94756    118.79910    112.65797    110.73054   
385      111.40052    121.21651    124.28462    118.86715    112.84426    110.53329    119.93253    112.99226    120.26029    113.22360   
386      114.81268    122.82079    112.86222    116.52144    114.98692    111.62202    117.83880    112.08994    117.33516    119.64702   
387      123.97643    123.84896    119.43602    119.61340    123.15768    124.74243    123.24419    120.36356    119.36402    113.59408   
388      118.12562    114.38838    124.04521    111.22657    111.85877    112.02349    117.11353    121.47707    114.00830    110.34990   
389      121.09271    115.28250    120.82993    114.59718    123.56758    122.76310    116.45450    120.38356    122.84601    114.80285   
390      118.85188    110.17480    117.66860    110.92071    118.69843    115.37128    110.33147    116.30761    114.08717    110.36342   
391      119.24771    112.63880    116.13367    110.56153    124.39141    112.82193    125.19517    120.82783    114.07506    113.00599   
392      112.33298    115.22233    113.23584    117.61151    124.94745    124.92515    111.88810    124.92847    118.73386    121.58423   
393      123.72878    120.97483    110.71092    112.56311    121.15020    112.27316    114.65403    113.07430    110.87239    110.98447   
394      120.22994    112.45921    119.77963    124.20501    116.41405    111.20538    110.35911    110.89766    115.10760    121.38193   
395      113.43657    117.75837    119.67128    123.62433    118.07972    123.99592    121.48102    112.58181    110.47440    124.47177   
396      111.68872    114.48297    118.40179    119.37382    122.44474    111.19647    116.94993    115.03803    117.00037    124.50882   
397      116.52450    118.94540    122.79341    119.17002    121.60944    123.40969    120.98805    123.48596    110.15632    118.63834   
398      113.46237    117.40822    116.96373    122.48659    111.92933    112.36938    113.77604    123.63675    116.40842    124.08589   
399      114.98230    124.62389    123.35802    115.46885    118.20312    116.02818    120.34684    122.01208    118.84194    116.77191   
400      110.47220    123.27513    118.62827    117.03041    117.16170    115.33996    120.54968    122.80827    124.69842    114.23151   
401      117.88040    110.66357    114.03325    121.98678    116.61741    114.08950    120.31752    113.55967    110.19472    124.28629   
402      112.59327    113.82308    118.06068    117.77101    119.75648    123.47363    122.30484    120.11107    123.74590    122.25867   
403      115.56155    113.38165    110.91930    124.43266    119.64743    113.91691    124.62446    110.07746    111.30301    115.44495   
404      123.53483    111.71453    124.70974    124.84737    121.69672    116.72614    115.92174    116.95693    115.23618    116.11625   
405      119.29649    110.30144    122.54378    119.00396    119.25683    123.97331    119.06014    120.84574    114.03427    124.61990   
406      117.41705    118.94834    123.02285    122.31443    120.63863    111.53624    112.73285    117.66732    112.25846    110.18287   
407      115.84196    114.43809    120.05676    111.93551    122.08491    119.41544    123.99719    113.10339    120.39984    118.59102   
408      121.70392    121.41024    111.28961    113.93443    112.17198    115.90584    122.06970    115.34455    114.88920    115.91842   
409      124.44908    118.92736    117.50072    117.51253    112.04995    119.10174    119.40406    123.21087    119.51508    114.40481   
410      110.98771    117.25478    110.57634    120.81529    123.19630    120.48832    121.82759    116.84643    121.91673    116.23209   
411      122.09421    116.94311    117.22159    120.15417    112.85940    115.60321    113.94726    118.10337    112.73061    113.23788   
412      121.53646    114.43488    110.28080    112.08373    114.58701    117.16790    111.12245    112.84417    112.52761    121.72816   
413      118.16847    121.80117    113.89922    122.63843    122.34804    116.99742    114.94819    110.62467    111.12303    117.96817   
414      119.78348    122.19758    124.34907    116.03772    119.97471    124.09070    112.60664    123.02611    118.84030    123.03112   
415      114.67681    120.61088    119.73387    110.28721    115.95550    113.91371    112.10437    110.76849    121.41133    114.10302   
416      121.72432    117.00657    114.09093    117.31698    115.85177    123.65382    121.14825    111.64691    124.12178    113.57374   
417      114.71927    111.14702    122.62416    111.56863    110.72684    112.53793    121.55253    116.44744    123.11885    112.60108   
418      114.68055    114.59324    119.27981    116.41760    117.36429    110.11490    124.62160    119.43594    116.16835    110.26713   
419      115.73237    117.29824    123.27958    119.21273    119.58314    112.10924    118.41118    110.25172    124.50627    122.88369   
420      116.56606    112.99110    121.34039    113.94634    117.13664    118.34699    123.77968    114.64862    112.35234    118.88370   
421      111.80454    120.52977    113.91344    110.41646    118.99345    115.87656    112.74353    116.53228    121.28846    113.14889   
422      112.21446    110.01811    114.60706    115.47288    118.52132    110.89767    112.34126    122.42997    120.26248    115.30562   
423      112.40271    114.42384    111.68694    124.73383    113.28432    113.01527    124.56713    121.13399    124.81640    118.30437   
424      119.63252    124.11226    119.14169    112.95996    118.80126    117.13418    121.22478    122.44144    121.32347    116.01727   
425      114.66171    122.50314    117.71523    119.98766    123.95566    113.08054    119.91943    120.83842    122.51780    120.81382   
426      111.70836    111.64404    114.69891    124.69823    115.58488    118.20532    110.91544    118.49296    114.91873    112.51918   
427      118.69950    110.59264    113.31034    118.61642    124.68507    118.05893    119.95341    123.07264    112.86822    114.05145   
428      113.18347    112.02889    122.98272    111.84995    116.30567    116.22431    117.39962    115.12805    124.19395    121.13771   
429      124.42544    111.33814    116.56747    110.79952    118.63881    110.23209    115.34318    124.66405    123.52357    116.51885   
430      115.70081    114.85404    111.24718    110.38946    110.84517    116.84007    114.14579    112.62962    112.24611    123.42467   
431      124.98716    121.94024    115.62385    115.11335    123.57709    118.96964    123.30706    121.36590    122.11953    122.64575   
432      115.61011    122.27621    121.05123    122.91083    124.97971    118.57422    118.41580    113.50021    119.64385    115.66331   
433      121.52985    110.61240    120.49686    117.70943    114.51413    117.59919    120.02244    118.26517    112.80559    121.53190   
434      121.80078    121.08993    117.21642    124.03238    116.32600    122.74585    111.00412    116.64437    112.96893    122.85744   
435      118.18997    117.45814    118.45596    119.64168    123.57873    122.95771    116.66098    114.51181    116.71070    121.74344   
436      111.99337    112.01308    113.16016    122.33792    121.86861    119.26956    111.79494    119.17624    110.73486    113.15983   
437      113.41489    117.07687    120.20934    112.71597    115.69858    115.34725    116.98531    121.20824    115.66998    110.84296   
438      121.22076    122.96943    121.06854    113.94791    121.77576    115.95296    120.88435    122.46152    116.25915    113.00222   
439      113.15284    118.83038    119.64865    117.80451    114.03385    124.42186    123.60587    122.91466    114.19236    114.85670   
440      112.34884    112.52626    121.14255    118.30778    118.12214    117.58012    114.54182    111.05213    113.57636    115.07029   
441      121.69483    123.79092    111.25813    110.14698    116.73484    110.15863    119.71929    114.65685    111.49984    123.26108   
442      113.70240    123.77078    115.72717    112.98332    117.62070    123.07531    112.59951    121.59956    110.43111    110.15744   
443      111.86978    120.90322    118.25916    124.96765    123.52752    122.14735    111.07617    117.36235    113.42521    116.97438   
444      115.37091    119.24838    113.19017    119.97810    114.97226    117.69692    112.91462    112.43170    119.85252    111.74987   
445      122.71683    111.50093    112.30142    116.95518    112.37072    122.81166    118.06160    118.88831    116.83439    111.38381   
446      119.31838    122.62305    114.29322    119.07699    120.69259    111.14075    113.05592    114.39078    110.64166    114.41813   
447      121.39447    119.77248    121.79436    112.64027    123.19623    122.01799    121.52216    115.36867    118.04655    114.32260   
448      123.11207    124.71833    123.27624    120.13610    110.16782    118.59277    110.09510    112.13264    117.42512    115.83838   
449      113.54039    113.79614    118.23770    122.03194    116.24276    121.15413    122.84270    123.20723    110.52885    124.17706   
450      112.12464    122.41859    112.38740    122.92499    123.77304    120.56370    120.57168    120.51075    115.44909    122.88982   
451      110.50276    111.35782    119.99249    110.50511    113.21334    115.53115    120.41053    116.11057    119.37486    112.98147   
452      116.38493    111.45449    113.44381    115.08664    121.39675    110.68486    117.06923    119.47674    115.30253    118.30555   
453      121.75722    123.58115    116.02933    111.68558    122.24439    122.91321    112.28504    114.17146    113.83435    119.90559   
454      116.43248    123.19551    110.62880    114.71651    121.48970    118.84019    118.54685    116.65966    124.15594    117.93477   
455      112.65552    118.25522    114.69682    116.36482    110.48862    111.96432    118.06093    124.74165    122.81972    113.62098   
456      113.00268    110.54935    119.05706    122.04565    118.62522    116.65100    118.91344    115.29098    124.00875    120.53142   
457      117.16037    119.38348    112.13741    112.30786    116.16079    111.51481    111.96180    114.55597    119.96668    124.78970   
458      118.70793    113.45081    124.05617    123.25226    122.45200    112.54760    119.57545    122.51129    115.24472    115.50195   
459      111.92459    115.89942    122.25968    123.61341    110.05585    113.96209    124.87138    120.76229    120.96565    112.94818   
460      114.74615    112.94502    116.81204    111.90951    114.86546    124.90380    117.84853    123.08607    116.58437    124.44950   
461      124.09218    124.38404    118.29235    112.54101    113.22572    123.93721    114.74379    122.61526    114.37940    118.08617   
462      119.51614    124.64450    114.92868    121.39180    113.72702    116.72565    118.61281    120.85069    114.75493    114.57254   
463      121.48092    120.84954    114.55524    114.97693    121.65646    111.16229    124.72305    110.93609    111.97776    123.87387   
464      114.69160    115.82997    119.77219    111.37295    119.75006    114.84157    122.79109    115.66682    115.16604    116.40756   
465      110.87700    112.67451    119.81724    118.44314    113.36960    110.83655    117.54586    114.97024    120.84609    110.45544   
466      121.37078    123.10250    113.64563    124.88210    111.12599    111.34900    119.08905    122.67573    111.59984    116.29087   
467      112.70572    116.01565    122.27945    117.97690    119.98955    111.19165    111.34976    119.47775    116.80677    114.73846   
468      114.76983    121.95845    124.71619    110.04684    115.74631    111.11684    114.03537    122.59800    120.05693    120.14688   
469      117.19147    112.25122    124.18638    123.85892    114.21287    122.71193    122.06847    118.44330    117.25676    121.21988   
470      112.28618    115.47286    116.78582    121.07761    114.77974    110.25526    119.75778    113.85443    124.10767    110.68672   
471      117.62229    121.79870    120.59511    121.46359    117.05624    120.78008    123.38990    113.60910    110.85186    120.78430   
472      123.25183    113.45234    110.97263    121.58138    115.89245    118.40745    119.47724    116.13941    122.78481    113.74324   
473      112.40906    115.17606    116.33787    123.39109    120.78964    124.68951    112.72377    117.04130    120.70835    113.60260   
474      120.72155    113.64394    124.37849    118.17877    121.43134    110.50832    124.67630    121.09632    123.05018    110.62012   
475      124.92257    115.30867    110.68895    112.59425    117.00354    115.68397    124.72081    120.62600    121.91324    122.31093   
476      117.56599    121.63960    115.36349    120.84579    123.07258    110.21914    111.84118    120.54322    110.44435    118.32681   
477      110.82972    115.86950    113.68277    119.45363    123.18939    112.41559    124.77857    114.04264    120.38757    124.20036   
478      115.32367    112.42126    122.00106    115.23725    117.78849    122.04937    111.37446    119.87940    114.96115    119.24242   
479      121.78459    110.79396    118.35615    121.42839    114.01529    115.24555    122.42847    114.25985    112.77844    119.07566   
480      115.14359    118.23606    123.63201    110.53679    118.49021    115.25617    113.11359    123.27760    116.87307    119.27368   
481      116.46382    111.83430    119.85891    121.08612    112.77484    112.48805    113.51370    118.62761    121.42161    115.29519   
482      121.26317    114.92740    113.70994    117.13446    118.17567    111.64220    114.51999    110.07857    123.96757    118.81201   
483      119.90981    123.11429    123.94494    124.50631    115.05795    116.28489    112.24499    119.24779    119.24974    118.92063   
484      115.24073    110.33429    123.70770    119.05533    113.93764    115.27928    118.56991    124.34893    115.53101    121.41142   
485      115.94743    113.13709    114.96377    116.54693    116.99733    118.51773    112.48688    118.55216    122.84048    118.38645   
486      113.82813    121.53616    118.67367    114.58222    121.49788    122.62593    113.50589    110.91122    123.50993    112.91028   
487      120.55738    120.79418    120.71310    115.66540    114.22633    117.38959    118.94647    114.02812    117.93810    114.03048   
488      119.05908    118.33482    118.91461    123.41621    116.95579    120.67053    117.37507    121.48169    111.16349    114.06673   
489      124.46125    116.71204    113.75779    118.30296    114.86128    116.25926    118.72740    112.16708    124.02974    113.05293   
490      119.16362    117.68868    110.10466    114.90704    123.94450    116.60264    122.71545    113.88457    112.77094    119.53528   
491      113.12208    119.66819    122.17906    114.59770    111.12765    123.95098    116.84081    121.82349    117.27149    124.46389   
492      123.34435    122.80033    119.20783    117.26430    124.70383    110.19254    123.43723    120.87844    110.63747    110.38999   
493      121.32752    124.26027    117.97161    119.23760    112.89826    118.33055    113.94524    116.54738    110.20080    111.48771   
494      120.71287    123.37115    114.73955    123.16147    117.02981    121.33713    112.11187    115.78779    117.61108    110.68795   
495      123.42258    118.94123    113.12172    120.82113    114.85800    124.57786    117.10169    116.96953    117.84312    122.94481   
496      112.78599    122.50686    112.08610    122.57380    112.09051    112.96195    121.85538    121.23223    110.28516    123.22974   
497      114.59465    116.59628    118.81171    120.59978    121.61912    113.67273    119.96982    114.75935    123.44622    113.87995   
498      123.95550    123.68685    122.45577    114.97053    122.54883    114.89119    119.16192    124.36261    115.76482    121.66415   
499      113.92315    119.07356    121.15446    124.25824    116.14311    110.93566    124.31252    122.98018    124.01534    115.51785   
500      120.81313    112.51085    121.87428    112.16227    113.79390    116.02011    114.21828    112.45686    120.08429    120.21987   
501      114.80751    117.45511    120.68313    110.01793    113.69079    124.40850    119.28386    122.73269    124.24859    121.34213   
502      115.22900    124.63854    120.81139    115.47458    112.95428    110.65999    117.96440    112.97964    124.35027    124.35189   
503      117.95093    119.20801    111.32189    112.43909    122.21296    118.01939    114.61091    116.99152    112.49593    111.57269   
504      112.61116    117.21134    123.41841    110.45509    115.17734    110.12148    112.92671    118.34331    119.90730    124.12470   
505      114.71232    121.13155    114.83810    120.49642    113.95768    123.19201    118.65471    119.86411    117.96357    113.37854   
506      110.98491    121.52258    114.53420    123.26384    117.71070    116.63783    124.60473    115.13613    116.31128    121.01162   
507      116.99112    121.05572    120.78144    111.33883    115.72848    122.84408    118.66774    122.17393    117.32986    123.79957   
508      114.92297    111.39967    111.35365    112.25484    114.34416    114.60666    113.54301    123.44487    122.15983    120.50913   
509      110.74718    113.42895    123.24150    119.41423    120.55470    110.87334    115.97526    115.40060    120.02635    110.90700   
510      121.45248    116.95917    112.63943    118.54633    114.67118    119.92239    119.88734    119.74424    118.71677    118.34894   
511      124.03802    115.24160    124.44005    111.81263    123.12234    114.34804    111.62925    124.58894    116.42685    117.29020   
512      119.86372    123.67153    112.78471    124.08882    113.92621    119.32117    122.96947    117.54016    116.48882    113.34826   
