SLC Damping Ring Gated camera results.  10 e+ verical profiles at I=1.50mA.  
The distance beteeen each pixel on the gated camera is 1 micron.  
Pixel    Pic1(Counts) Pic2(Counts) Pic3(Counts) Pic4(Counts) Pic5(Counts) Pic6(Counts) Pic7(Counts) Pic8(Counts) Pic9(Counts) Pic10(Counts)
  1      124.94525    111.63066    111.89430    121.89425    110.31444    113.40741    113.20829    112.73905    114.19281    112.32870   
  2      122.32509    112.45232    116.92217    123.45965    124.55231    110.81580    115.13099    114.89195    116.14784    114.58807   
  3      116.21620    113.64482    114.03499    113.47315    120.04463    111.99444    113.85265    110.74949    122.44277    117.97972   
  4      117.17350    124.25032    121.00775    117.82732    121.82333    111.71305    122.90754    119.21415    121.23730    121.95939   
  5      112.62098    119.56173    112.97700    119.79406    122.33522    116.93539    124.75441    118.64552    115.93255    112.87433   
  6      124.97562    122.17653    114.59365    115.39883    116.37338    111.22186    111.86718    117.05642    115.78589    111.07959   
  7      112.93073    125.07709    122.05528    114.20616    122.08753    120.26068    117.35284    121.28400    116.62555    111.76175   
  8      119.83570    116.94440    116.37224    124.29924    115.95129    113.07455    112.94761    124.38084    117.58222    110.70114   
  9      121.33260    114.86998    117.15542    124.06222    116.84887    123.66788    110.51274    121.30315    115.59772    115.90945   
 10      121.41831    114.41657    120.81668    119.11349    114.84205    121.82703    117.57012    115.47048    123.88303    112.51407   
 11      125.03224    116.80057    111.18927    122.95393    122.26425    112.36468    112.89796    124.63970    112.74259    120.34231   
 12      117.71245    115.18894    123.68003    120.72403    117.00329    121.42083    115.17571    120.32182    119.67742    119.89755   
 13      114.11112    116.48407    118.37789    123.52599    111.42684    115.77117    118.59493    114.43002    125.28782    112.20186   
 14      119.04460    118.18250    114.97450    117.33273    124.05709    118.27992    116.26675    120.31866    114.63699    122.98281   
 15      124.42724    125.05145    114.72817    123.76007    110.78212    122.64603    121.60675    113.62253    119.18803    124.63850   
 16      121.76064    112.88408    123.17343    111.48627    117.03097    125.07705    114.68237    118.59654    124.38655    118.02911   
 17      117.60580    122.71355    123.36520    111.92127    117.43827    120.37085    111.12968    125.61839    114.29000    122.42965   
 18      120.81277    112.42899    123.53177    116.30555    111.50041    115.87548    118.15165    114.88163    114.32923    113.45818   
 19      121.62608    118.86065    122.77981    114.58049    120.81169    115.52830    119.20515    114.99945    122.07743    112.39990   
 20      118.43700    114.37165    117.50771    123.15012    116.22700    122.71356    125.50592    117.23649    122.55918    114.15072   
 21      112.52443    111.58718    119.98665    122.89917    124.44950    118.52841    121.57267    117.49611    115.31004    115.13372   
 22      124.13483    114.84669    118.37035    125.44384    113.52379    112.13773    113.25153    120.29496    111.93578    120.37299   
 23      117.93825    114.28875    114.79878    113.19686    125.59455    124.54766    113.63995    122.92360    114.21574    114.80753   
 24      114.56638    118.05710    112.15177    124.29755    121.21000    117.48921    113.09463    124.54281    120.01755    115.14576   
 25      111.89077    123.77663    116.94774    126.02258    112.45642    120.68564    112.73497    123.34520    114.27004    116.44462   
 26      112.90598    119.46278    120.33133    113.07114    125.15106    120.16496    113.16012    117.08251    113.00318    125.61022   
 27      118.83347    112.89244    125.70161    118.41522    116.61253    124.46764    117.12661    111.40873    117.45936    122.80414   
 28      118.79697    121.78018    117.23328    124.28859    118.91970    118.21944    118.63309    111.97048    114.44659    124.95785   
 29      123.45339    113.99613    126.27060    126.64271    113.34906    122.08957    113.48457    115.28345    114.68479    119.32103   
 30      117.50980    125.93630    119.54990    120.00090    113.40376    114.67024    126.02109    125.29458    119.16768    125.89359   
 31      118.40327    123.08333    114.75961    114.36732    126.89750    115.74309    126.17323    112.77667    112.80401    121.81937   
 32      115.14212    117.37447    121.36352    120.63560    116.35187    123.42875    116.13344    114.33551    116.74167    115.30343   
 33      127.32148    125.51398    112.46764    119.78657    126.17635    125.06093    124.34770    126.75157    114.14985    119.23678   
 34      125.77769    126.06693    119.61381    124.90630    123.49936    113.87892    119.79192    127.00107    120.93264    127.13037   
 35      120.87997    119.18889    120.02238    114.48277    125.26765    114.46778    122.98637    116.04721    126.58774    118.90555   
 36      127.82608    122.21655    115.59948    123.85649    119.10216    125.43473    125.69639    120.52755    118.81126    124.83100   
 37      125.30047    118.64656    114.53075    121.18439    115.17740    119.76869    120.78617    127.73289    123.52140    116.68070   
 38      116.73289    118.03264    119.40338    120.27014    126.11971    116.00210    125.91915    120.30634    121.82272    124.67394   
 39      122.05828    125.94467    120.44160    123.65276    123.31919    116.47402    120.63775    118.14351    124.77939    127.76933   
 40      127.63451    115.94717    123.99587    114.96169    115.47604    123.16683    128.59819    126.04008    116.04900    127.07946   
 41      117.06886    128.66458    114.47044    118.20335    124.77110    123.80102    114.86539    114.84100    121.51626    122.33652   
 42      127.68767    116.24314    127.30790    125.22803    125.87101    121.50763    119.72635    119.75599    127.64811    117.94876   
 43      117.06067    122.67748    128.57391    116.55408    123.55928    127.43255    120.73570    120.03298    122.28739    126.08099   
 44      130.05164    125.88044    121.42352    116.79600    124.82680    116.46671    121.42717    124.24603    122.17215    115.86091   
 45      117.16609    119.73031    118.87536    116.18787    124.60461    116.26460    117.04604    122.65739    119.77129    119.80493   
 46      125.19523    129.35596    117.91558    122.40210    124.40537    121.68661    129.58029    121.38442    118.85610    125.81301   
 47      120.51483    121.85496    117.70267    130.71646    117.66025    115.19095    130.68977    115.78284    126.19338    116.35874   
 48      124.39042    124.01915    128.57055    119.18645    118.07626    129.32245    118.73031    124.52385    118.93281    118.22943   
 49      130.22359    123.33540    127.28948    127.26091    126.25795    121.81471    126.35605    123.80377    119.54913    125.25570   
 50      126.95288    128.52331    129.68271    119.43580    129.52435    119.95236    125.85962    124.77753    119.08849    126.68618   
 51      131.45645    119.74588    118.37227    132.31600    130.20237    128.35203    120.33122    120.60131    119.06162    132.30529   
 52      118.57269    127.95803    125.84699    118.02688    119.22411    123.38804    124.24406    125.32815    130.44503    122.88816   
 53      129.31488    126.28193    128.72599    123.60293    127.92110    130.64613    132.18790    126.84020    131.26255    126.76814   
 54      121.93078    123.91675    122.67820    128.16569    120.54261    124.43035    119.42837    128.72214    126.03268    129.37133   
 55      133.30433    132.51799    122.22786    123.25469    130.84084    133.09665    121.36405    137.54112    127.75750    120.53970   
 56      130.10055    125.32454    121.08835    123.97092    132.61926    131.01513    126.04300    124.63463    132.09922    124.06539   
 57      137.48962    130.95992    136.40824    123.66948    130.77279    125.97932    124.80233    136.41941    131.91057    130.72831   
 58      124.92549    133.06648    137.54095    129.56487    128.03964    130.06685    123.14377    126.75664    129.89525    135.05267   
 59      130.05210    132.25496    130.92000    123.42098    138.59208    124.83963    131.10645    134.74755    129.66930    124.11977   
 60      130.05695    132.48242    124.50091    139.66890    135.09928    125.78344    129.61887    132.69057    129.54156    132.70371   
 61      131.28435    139.38271    135.88433    137.86196    139.20398    128.05221    133.35824    124.47950    126.80784    128.46653   
 62      128.87252    125.37960    138.87382    130.63758    131.62563    135.93178    134.86115    136.73071    131.64335    132.72685   
 63      137.23846    130.35084    133.29723    130.90753    133.46164    133.62456    134.69577    127.96613    136.73915    137.36298   
 64      138.18396    132.09239    142.27300    135.96139    135.62816    140.71151    132.95731    142.98311    134.68273    136.80608   
 65      136.43605    137.03527    130.49650    136.99376    127.53337    146.12137    143.17406    132.27224    145.58573    140.53991   
 66      144.92126    136.82588    141.85157    135.09515    136.44768    138.34191    144.99083    142.90524    143.11477    136.76279   
 67      138.48710    143.41768    130.31098    135.86634    138.15417    136.10548    134.34846    142.23654    138.61749    142.19624   
 68      133.63966    139.63721    142.90552    131.54000    137.22156    135.03802    144.30838    147.29087    141.09669    133.58502   
 69      146.69483    141.41343    141.49956    135.79242    144.76391    134.30664    133.56966    140.03357    140.51601    134.26411   
 70      148.87227    143.02611    149.74066    139.72729    142.72571    138.04785    138.73067    146.19145    141.57664    149.35349   
 71      149.29410    145.86707    145.47374    145.26512    142.50383    142.52011    143.40460    140.89026    147.62618    139.56663   
 72      143.62141    145.97610    141.88308    147.03423    141.36815    149.27406    142.69738    152.04491    145.25984    151.02051   
 73      139.10654    155.52826    154.23843    144.45805    143.42876    142.74134    145.87072    150.73243    149.85781    150.02292   
 74      149.16873    148.44136    144.67270    143.91498    158.27413    147.51743    153.30976    140.87114    152.35785    151.20511   
 75      147.43284    149.47220    155.16831    151.75808    155.32304    151.60937    146.59918    142.64786    142.19819    149.36882   
 76      161.65729    154.48122    152.60200    148.62262    163.91811    157.60095    160.68535    148.38317    157.84089    151.26417   
 77      150.57873    147.03650    152.51785    157.66270    157.54257    152.13606    157.01184    160.25849    150.45837    151.37519   
 78      154.82618    156.78324    164.01964    160.47646    148.14868    158.81081    151.68151    153.24242    153.74016    160.22823   
 79      159.08861    165.45809    155.81897    159.41599    157.54455    168.72582    154.46983    160.69246    164.51751    167.69982   
 80      158.22007    174.94138    156.76766    155.83895    163.00065    166.26652    161.25451    168.91113    157.75644    160.56587   
 81      163.70044    172.04086    170.62743    155.60222    159.36280    153.96295    172.07797    164.12580    172.64051    170.20356   
 82      167.10700    160.34664    163.01567    167.49587    168.43339    159.25621    173.82455    167.27403    173.03637    180.35790   
 83      168.72039    171.29074    157.22080    168.84697    167.96972    182.67678    165.37027    159.23801    165.12759    174.24914   
 84      167.66641    177.92495    173.74642    164.99991    171.39299    170.64913    161.58649    164.45136    170.57150    170.13508   
 85      166.72864    177.42916    177.00540    181.12431    167.16681    164.99588    172.23759    183.09706    161.68154    172.22964   
 86      184.78089    183.88360    176.75477    178.00863    184.29410    181.18148    180.70496    169.56677    180.74541    195.05026   
 87      187.80546    187.67050    186.84373    195.36867    181.89449    192.21800    190.72481    184.94788    174.16523    183.21074   
 88      187.74620    183.24745    173.84144    188.11565    185.29726    186.94006    185.40803    187.25294    172.58703    191.29640   
 89      203.08250    188.64681    187.84999    199.10092    194.83285    180.73672    187.80953    187.98558    195.06829    188.24494   
 90      197.92371    185.85540    209.11172    191.38068    191.85529    197.23728    200.31482    185.98095    193.49921    195.56340   
 91      208.96140    198.64635    201.06177    192.85002    213.04813    186.29867    196.21302    192.20073    197.40859    190.18419   
 92      191.34703    199.89546    198.67925    194.74413    200.54310    194.35762    190.70820    204.43141    185.87969    202.72917   
 93      224.47190    216.63098    199.08595    206.95436    197.31118    200.95457    217.72635    196.94121    205.91708    210.83881   
 94      200.57935    204.15190    225.24422    219.48265    214.75754    214.44421    207.54590    199.98238    207.83465    217.90627   
 95      208.26113    207.63669    216.67875    221.63344    223.16937    220.10726    230.13753    211.45547    215.04954    232.31977   
 96      225.63626    214.11967    216.28119    219.02628    225.50338    212.42583    224.88059    229.83214    222.39950    213.70230   
 97      219.63130    224.08324    208.35471    232.86983    219.58643    216.16301    233.78841    228.58498    228.57003    230.38421   
 98      240.05096    237.61011    231.03299    221.37081    244.88635    220.29666    220.98132    228.93772    221.73952    230.17050   
 99      221.21065    239.34635    232.54085    240.63849    242.50107    257.02706    252.80823    241.95006    237.00107    224.95675   
100      232.95221    264.45973    238.65085    261.11022    223.39697    238.56078    234.80310    229.37807    236.65226    246.17074   
101      266.80555    254.25839    272.89668    250.66701    251.69296    245.62747    266.57549    257.38942    230.05521    238.11469   
102      260.09757    244.47967    250.20508    250.89447    252.03032    266.92906    256.85095    270.76676    249.55113    250.76870   
103      292.70085    268.74054    272.18181    271.44948    258.21273    258.90952    254.78465    256.67839    260.43280    257.35370   
104      266.69631    286.35044    273.69444    255.48488    260.98047    273.29610    285.33759    278.79682    277.26465    271.04917   
105      283.73517    267.28978    283.73610    291.34985    280.42406    275.42739    270.70154    281.50292    264.59404    269.81756   
106      292.94863    276.29317    302.91683    307.85166    284.35301    260.29634    298.40768    298.73028    281.69115    300.73322   
107      291.07714    325.65507    301.96784    301.48678    332.57540    282.33566    326.64628    291.85457    317.66435    293.84379   
108      290.73218    305.70260    284.58818    302.08044    309.63341    313.50251    333.42686    292.99447    298.53850    313.78264   
109      314.19157    327.80374    331.53415    302.01161    301.05416    353.34472    319.15077    320.15831    310.98839    319.58604   
110      342.61585    319.35224    306.51686    317.71430    329.17347    346.03751    326.53983    327.49419    334.00196    315.84588   
111      333.59271    360.61919    311.06105    350.86700    324.22336    339.38087    334.32288    346.42600    330.07864    357.17058   
112      346.02208    342.90008    372.85764    364.41991    363.28246    344.92337    332.11744    359.63636    342.70313    349.93189   
113      371.33574    335.97190    357.46208    337.55660    359.61955    353.61755    370.59262    352.36048    354.19832    359.28373   
114      376.31904    363.34477    366.75091    361.69935    372.33159    376.57383    370.93825    365.66241    353.88854    364.41859   
115      372.37600    390.95256    409.12274    369.10391    365.58140    354.24939    364.72450    383.82141    409.33959    368.17455   
116      388.17793    396.72304    396.72434    383.32555    404.21738    396.96935    368.13775    382.74403    400.73430    361.90781   
117      400.62929    380.14167    389.77754    407.89113    415.59726    383.93432    408.06527    406.92022    440.64534    407.58925   
118      408.27106    393.74867    415.34700    407.73776    431.24603    429.55156    407.91343    407.45456    415.06398    403.93514   
119      413.42471    449.85164    464.79530    405.29898    440.98663    407.14406    476.04972    410.22238    423.04523    423.14952   
120      438.63671    446.50068    455.11600    438.13323    419.45460    416.30250    442.44874    436.45496    466.04048    426.28852   
121      470.36643    454.39771    466.37065    455.20786    455.66576    469.15305    439.68168    466.29037    445.00017    439.16194   
122      518.32715    474.74333    464.47872    511.85834    459.36527    479.21309    473.58272    502.78791    505.11130    472.39022   
123      478.39787    465.48372    489.82028    453.65533    478.98491    459.27184    465.96711    505.55819    495.90443    462.33325   
124      516.98430    524.94725    530.89899    519.15531    539.73336    489.94799    481.94482    488.68751    502.50732    524.56158   
125      546.63061    535.42681    551.85188    488.88711    482.65498    522.18339    527.29159    507.30388    532.08827    514.08536   
126      546.43898    544.99726    556.18791    520.95019    575.91794    588.68907    566.15989    511.57109    558.71530    537.26874   
127      575.38940    549.51527    574.56175    540.24158    538.89102    560.10699    538.34217    589.85853    563.31424    541.07600   
128      545.75816    549.05151    582.56324    592.53646    618.96554    606.95170    550.31121    614.51827    597.50067    591.68275   
129      578.46065    557.84167    579.05760    594.90486    588.07976    593.43372    539.50701    603.01738    565.97979    608.26668   
130      584.76824    647.47580    621.33843    601.43779    620.76883    596.53826    642.27380    596.89928    618.76436    601.47641   
131      607.55048    647.79003    627.34566    624.90282    636.35587    618.72893    589.60191    616.26163    637.79064    630.62400   
132      627.13330    633.60007    639.61840    611.40873    590.91409    625.00109    685.04862    690.90882    695.57635    663.03665   
133      643.19410    682.56735    671.49669    677.31954    645.06104    671.65471    691.45260    645.78778    684.14328    689.20354   
134      710.73967    689.70680    688.78281    655.74449    689.42751    662.68056    729.69713    675.88790    734.77176    683.36508   
135      692.95051    715.59323    694.61219    790.12581    737.79184    743.73074    701.82305    699.67750    712.01439    738.49325   
136      802.39699    751.02914    711.97905    762.08074    738.86949    749.09502    671.40004    793.16331    686.04644    728.06931   
137      764.18578    789.60702    778.89139    708.03802    736.05437    764.90668    769.15095    791.13060    804.57542    740.60014   
138      773.66638    785.91033    825.81358    788.87969    838.40819    767.40375    772.79508    789.27450    810.82259    798.53556   
139      790.09371    812.83816    877.63867    874.97912    784.97182    880.17554    791.04744    860.90490    778.87697    731.44300   
140      796.31946    775.54189    857.92126    810.00689    832.70989    861.78609    830.88522    884.18878    805.69526    774.50205   
141      895.01510    861.53869    884.25858    862.98950    862.02402    842.90350    890.97883    813.24750    806.91500    898.72922   
142      943.14293    874.07835    919.92057    853.71424    899.41375    939.05991    859.60011    940.35878    822.08318    896.28088   
143      849.50268    918.90356    838.55949    908.24721    920.30859    899.67507    932.65279    918.37915    892.44770    848.70358   
144      966.41181    926.20996   1004.18319    901.49609    961.25610    910.67956   1001.03429    995.49666    966.79686    990.42327   
145     1018.09702    943.81027    927.79073    954.08763    985.39757    958.70340    932.77869   1015.81009    960.19230    916.56597   
146      999.32893    955.44777   1060.60098   1060.93203    949.29633    990.90703    987.28517   1067.26090   1074.39987   1074.78580   
147     1017.78330   1015.75560   1029.46372    962.86984    999.87076   1088.79481   1050.13219   1048.55008   1059.99439    983.52370   
148     1113.87362   1047.95907   1132.24533   1040.73115   1012.03216   1040.45588   1100.09791   1121.63154   1063.25647   1072.47836   
149     1065.56116   1099.52552   1172.30257   1110.87737   1144.68570   1101.10266   1087.02950   1198.33451   1095.04969   1062.57792   
150     1203.55454   1065.81032   1241.54866   1118.80405   1194.35362   1166.08051   1167.79643   1143.05399   1146.08303   1106.44311   
151     1258.35089   1167.04610   1179.07621   1204.69582   1121.98180   1176.59640   1156.71984   1154.60110   1221.88709   1149.88794   
152     1212.38988   1207.09954   1122.99276   1236.71845   1302.34193   1215.48594   1292.51782   1278.96061   1182.66204   1172.84727   
153     1173.83017   1342.09807   1222.69582   1211.01675   1233.81157   1249.47297   1251.86798   1265.35830   1288.66939   1231.13695   
154     1282.24845   1307.50124   1344.36655   1267.44350   1255.24788   1325.44339   1301.85169   1333.42116   1299.36162   1265.42815   
155     1317.35994   1281.41514   1379.21365   1353.89813   1304.01887   1424.40666   1298.19514   1360.65122   1310.86391   1260.12210   
156     1466.25814   1262.29486   1392.31510   1363.33879   1344.20244   1425.73757   1377.86265   1310.61702   1352.85815   1312.23804   
157     1342.18475   1426.52340   1328.76959   1382.45112   1464.63472   1340.21345   1398.14405   1446.42204   1411.41757   1415.77607   
158     1431.02352   1432.33319   1446.49537   1449.38482   1525.39454   1505.86080   1489.52363   1466.22523   1365.63794   1493.87133   
159     1522.50096   1451.95485   1483.92756   1478.27063   1560.15855   1471.79135   1447.48263   1565.00757   1397.04404   1479.36159   
160     1571.28905   1644.39216   1552.09806   1466.70679   1597.23352   1542.76156   1486.97517   1458.41957   1525.67587   1495.19305   
161     1655.71755   1608.11183   1513.95352   1573.69010   1507.92970   1694.29598   1559.67083   1484.69170   1557.56326   1514.64102   
162     1726.24904   1575.71701   1579.26013   1570.31200   1584.03517   1665.27566   1574.71502   1574.43870   1546.53696   1597.60117   
163     1637.95545   1549.32493   1546.15189   1615.20396   1709.77279   1630.05884   1673.12804   1692.97315   1756.59853   1641.56014   
164     1712.00402   1726.93363   1727.06651   1641.80526   1697.30854   1734.42774   1826.64108   1756.46478   1758.30024   1639.62092   
165     1834.54318   1687.92418   1753.74596   1781.79775   1781.98631   1828.43925   1838.91956   1873.15224   1699.20668   1713.34854   
166     1794.90681   1688.21519   1758.70489   1878.62276   1867.72329   1833.05824   1921.85143   1801.62973   1861.41544   1851.99857   
167     1759.73447   1781.53678   1846.86369   1937.21694   1912.64159   1950.96900   1899.07011   1734.06732   1870.50884   1823.17301   
168     1906.69130   1924.07241   1975.33589   1907.82980   1983.07018   1823.39179   1910.42163   1813.38379   1959.38561   2009.36324   
169     1963.97140   1987.35115   1985.70118   1884.17769   1850.94648   2008.74518   2040.35987   1998.65966   1867.95684   1929.81452   
170     2040.91645   2084.28391   2007.26822   1907.29545   2006.04786   2007.61018   2035.94672   2141.32149   1950.04017   2094.72844   
171     1989.31715   2025.42282   2040.59247   2035.19445   2133.61698   2146.54965   2152.92664   2162.65806   2015.28917   1950.46100   
172     2205.23999   2022.43422   2097.69971   2067.81723   2073.56512   2275.41790   2094.60553   2102.59309   2242.60346   2176.72590   
173     2216.91048   2121.26880   2254.77370   2087.80672   2274.04146   2081.64730   2257.82794   2132.74711   2269.58970   2127.89100   
174     2121.41254   2278.12405   2219.04521   2363.82680   2244.17532   2333.33900   2149.34880   2212.04904   2225.09003   2192.75967   
175     2227.47529   2383.52251   2245.23244   2375.25768   2186.28719   2281.34407   2236.50443   2235.57902   2358.57324   2129.63069   
176     2207.71811   2394.19344   2229.21662   2363.17284   2254.85426   2285.33245   2281.31901   2408.20088   2240.73655   2296.71644   
177     2350.57430   2375.13159   2437.82638   2363.28726   2340.08913   2455.72930   2236.30575   2417.58293   2328.61964   2256.30786   
178     2460.05829   2365.57368   2482.44007   2594.33800   2501.59400   2332.37740   2301.64807   2426.20438   2449.45542   2375.81194   
179     2425.76473   2567.54928   2552.12038   2594.93067   2564.24100   2393.36409   2532.06102   2621.59074   2449.39685   2716.98639   
180     2529.71133   2520.20914   2631.37194   2537.86407   2595.69298   2509.97937   2636.80629   2622.28652   2712.68180   2519.33061   
181     2791.38170   2501.04691   2576.85155   2697.22591   2745.90436   2704.87936   2693.41514   2622.79299   2562.29558   2550.77222   
182     2724.32591   2688.59302   2597.21125   2612.67844   2755.77159   2607.77726   2690.40237   2632.99691   2607.11188   2841.31045   
183     2907.79790   2777.80578   2746.09543   2828.22524   2777.65035   2799.33854   2666.69559   2616.00158   2674.45395   2668.61502   
184     2738.15681   2742.52887   2808.26864   2701.63319   2874.51613   2905.21526   2851.57110   2790.59716   2785.11034   2844.31277   
185     2921.04205   2793.12683   2788.79799   2971.86602   3007.66156   2815.63097   2847.66811   2914.81360   2970.32338   2974.29168   
186     2864.01092   3015.30513   3018.30485   2962.52590   2964.13005   2984.65552   2955.19599   2817.55628   3061.58322   3003.01785   
187     3070.48595   3032.28807   2953.36940   3017.41364   2882.40623   3046.87093   2939.44925   2857.07949   3158.63400   3087.77767   
188     3003.23815   3187.71071   3159.63565   3001.49296   3079.05932   3123.02025   3135.77617   3029.39217   3061.78029   3254.10384   
189     3055.19353   3059.99751   3146.85975   3099.23870   3035.29491   3045.18196   3334.06026   3303.17765   3169.38402   3070.68126   
190     3192.48637   3256.52074   3071.24053   3104.95445   3313.54740   3149.76395   3390.51925   3250.68561   3226.63858   3182.60357   
191     3285.30730   3176.75628   3264.56546   3172.88089   3337.65199   3387.87214   3217.81685   3299.24471   3353.60069   3434.74912   
192     3259.73336   3275.46576   3337.07151   3326.23720   3413.34184   3265.59896   3263.69036   3247.11554   3421.03015   3413.95913   
193     3351.15409   3532.99774   3485.60531   3377.70543   3570.17883   3468.46971   3217.48058   3442.86578   3324.24608   3328.46410   
194     3427.87723   3493.68321   3277.66795   3269.47128   3531.58997   3432.35640   3444.30199   3579.23921   3439.47272   3511.89973   
195     3481.95462   3542.17111   3700.94228   3515.66484   3500.79409   3492.34914   3512.18533   3483.04623   3325.87796   3696.29332   
196     3671.83626   3650.57447   3546.82913   3614.13519   3615.74170   3677.05454   3642.81178   3721.80876   3709.83196   3530.83794   
197     3580.36012   3637.23272   3628.36491   3722.79760   3751.72919   3744.50658   3799.06737   3748.73015   3765.84814   3648.27112   
198     3696.90821   3784.43190   3785.53949   3838.94081   3603.04972   3786.33928   3859.47229   3702.00774   3640.07132   3706.69637   
199     3673.21473   3812.52527   3969.20364   3678.46384   3690.92629   3847.83573   3800.41263   3700.38346   3850.57159   3875.18472   
200     3870.70108   3625.95994   3796.13037   3966.65084   3796.44692   4041.05575   3776.33422   3780.37851   3818.93807   3819.11155   
201     4068.77265   4019.76343   3869.63897   4066.56966   3945.34063   3919.65004   3867.26685   4017.61158   4057.47148   3841.38241   
202     3978.25562   3972.09773   3989.59337   3970.03761   3966.33551   4013.47357   3947.89237   4058.50846   3945.72677   3993.07097   
203     4209.15753   4267.26196   4109.07433   4181.66523   4093.45218   4097.83529   4012.84847   4010.79576   4052.51309   4100.46708   
204     4176.08606   4143.10250   4093.04117   4298.32962   4074.52983   4110.02277   4085.46903   4014.09606   4019.27530   4220.51237   
205     4104.64628   4091.65953   4243.55369   4317.19941   4171.51402   4190.13068   4272.13759   4317.42991   4293.79673   4352.65225   
206     4237.22707   4262.85209   4408.75221   4321.10223   4347.79886   4087.99192   4158.85095   4186.89150   4285.20538   4329.44175   
207     4229.02041   4196.06071   4482.87912   4274.01141   4370.87351   4469.02475   4347.94362   4480.24565   4284.55761   4326.46359   
208     4277.23084   4399.73111   4332.77336   4288.80588   4437.07838   4602.31542   4425.43917   4236.42218   4434.23258   4476.19506   
209     4527.52565   4573.83723   4434.95297   4450.65737   4387.38410   4402.74151   4321.11386   4410.29353   4495.91833   4617.01938   
210     4473.98484   4493.53964   4372.76055   4556.24125   4683.16046   4629.70049   4448.17777   4558.53653   4488.79209   4633.55574   
211     4552.21293   4659.08233   4627.19110   4542.15429   4680.06437   4566.78905   4514.46748   4469.86709   4693.20602   4625.20936   
212     4755.03705   4535.12711   4781.48024   4544.25202   4741.24906   4688.58485   4813.09134   4695.05156   4481.79339   4616.76321   
213     4715.17205   4610.44558   4746.85592   4842.08219   4874.85458   4769.81975   4922.85628   4881.56894   4630.90151   4662.82494   
214     4750.52624   4784.04167   4942.28112   4727.70560   4845.40378   4785.18971   5024.86781   4777.40997   4923.15705   5025.42328   
215     4944.49094   4827.42798   5024.97406   4665.68554   4906.24838   4933.34057   4895.58502   4801.51003   4914.78894   4864.76519   
216     4931.71359   5147.53684   4778.62282   4898.85243   4895.22185   4877.00043   4877.60905   5048.61213   4940.60194   4747.93527   
217     5054.34142   4941.65681   4841.79875   5010.45031   4933.10806   4969.57847   4907.30436   4937.46032   5007.60405   5098.32866   
218     5045.56530   4922.78775   4873.55134   5256.54928   5002.53560   4966.15913   4988.19473   5037.74659   5009.58337   5121.82214   
219     5104.40210   5126.86360   5279.99024   5296.86703   5248.28758   5034.99214   5329.90750   5038.83384   5112.71110   5149.46897   
220     5090.15704   5229.92250   5285.91293   4975.62202   5185.73059   4977.89500   5233.29837   5145.43759   5100.05423   5177.67035   
221     5229.51541   5304.70359   5389.02483   5146.87520   5186.41612   5381.46490   5378.15865   5237.01473   5323.19839   5282.39495   
222     5457.59861   5143.78476   5375.90605   5247.64294   5233.35568   5463.87484   5459.51597   5188.55341   5474.33621   5422.03144   
223     5164.41217   5259.43410   5437.80403   5333.65649   5305.98359   5371.29166   5306.57813   5372.58221   5231.27916   5304.27014   
224     5467.20415   5426.37286   5362.47729   5348.53988   5422.11227   5298.14996   5521.22040   5352.37597   5515.11639   5387.51734   
225     5423.90275   5565.74373   5601.45801   5630.54963   5448.01618   5460.42021   5404.32369   5488.77737   5422.19947   5356.78527   
226     5460.59878   5571.12426   5436.08886   5501.33193   5341.71061   5561.78801   5545.45362   5689.02410   5549.62307   5505.31451   
227     5387.28020   5432.48550   5651.45140   5567.31831   5757.09884   5468.96784   5443.67952   5698.52021   5496.38432   5738.90936   
228     5542.75982   5577.51886   5522.56061   5643.18623   5434.33253   5735.01370   5777.18388   5698.54640   5677.28135   5598.98148   
229     5578.58440   5582.64417   5703.59023   5586.83432   5637.62735   5704.11017   5762.54831   5615.77054   5728.50870   5480.62480   
230     5674.59317   5847.67035   5691.47040   5800.41056   5725.44449   5769.92620   5642.52832   5845.56593   5696.21179   5726.53481   
231     5621.54025   5692.37867   5781.31356   5863.14548   5895.26807   5589.99531   5812.93301   5864.79213   5955.32959   5633.43589   
232     5853.66035   5661.10924   5841.93041   5758.15088   5655.56743   5666.10253   5829.27424   5870.84787   5785.53212   5633.39578   
233     5821.33527   6062.08071   5732.83944   5961.70006   5678.72226   6006.80571   6027.25018   5851.06517   5912.86779   5808.08272   
234     5889.53618   5860.46525   6046.58479   5885.69003   5786.78478   5948.56511   6063.61985   5997.65613   6022.24999   5805.20084   
235     6038.80622   5984.13231   5971.57734   6036.31554   5835.63032   6051.82503   5865.42737   5976.36186   5935.28914   5882.17829   
236     6080.14904   5907.36925   5945.89314   6061.27627   6015.77719   5942.00426   6055.96231   5951.00470   6029.08741   6097.40183   
237     6055.27085   6067.69862   5961.82102   6128.59758   5879.85993   6128.81936   5879.04030   6073.66197   6050.57962   6046.08294   
238     6106.51761   6136.42584   5980.84630   6045.86334   6002.94414   6154.85753   5917.71456   6149.57459   6253.50095   6134.95977   
239     6279.52538   6061.99902   6177.60510   6130.20522   6222.95115   6114.96172   6173.59455   5963.37284   6121.81744   6153.69196   
240     6196.53815   6233.05860   6199.47287   6003.46943   6166.56387   5995.69099   6036.82184   6319.43597   6046.24116   6133.04906   
241     6120.02051   6176.30619   6271.49663   6169.17508   6265.92630   6088.71373   6274.36739   6111.54053   6317.38589   6106.89155   
242     6146.36373   6265.00914   6388.49897   6310.89319   6244.55882   6256.47981   6221.08174   6218.67057   6132.46597   6162.82513   
243     6335.26191   6141.71627   6395.55998   6226.32793   6315.67795   6279.28872   6148.83327   6070.08800   6208.43021   6230.36040   
244     6394.29974   6333.22367   6278.35033   6237.88661   6222.44807   6294.56325   6134.38202   6222.61411   6365.95654   6127.27767   
245     6270.84560   6281.48398   6421.80070   6382.03566   6297.58377   6315.28930   6159.88101   6159.88767   6438.73175   6152.02088   
246     6236.55090   6311.08074   6225.69356   6282.69833   6327.15710   6473.02418   6229.31556   6205.92653   6312.21387   6383.55773   
247     6342.25426   6424.84180   6328.18982   6263.26088   6360.43354   6436.66573   6300.28104   6243.97580   6372.65305   6302.17533   
248     6369.78352   6338.80916   6359.36013   6308.33217   6355.44872   6323.57800   6433.72144   6515.41310   6465.47184   6421.28245   
249     6496.95071   6440.90229   6267.25557   6455.50073   6390.45894   6298.56894   6317.41269   6465.66023   6418.44812   6396.61153   
250     6270.46644   6420.01162   6410.42765   6411.68424   6496.83452   6332.49749   6397.59914   6360.33899   6404.79382   6499.31274   
251     6301.17137   6364.43960   6424.63331   6505.44797   6483.71362   6284.90911   6324.40317   6543.84939   6534.46905   6455.00537   
252     6332.15447   6447.41218   6475.69873   6506.16996   6333.81278   6480.19494   6522.42641   6393.14559   6527.81844   6358.64971   
253     6320.44731   6434.74887   6470.54184   6395.42486   6339.57512   6355.90878   6463.16800   6313.13663   6307.20945   6535.74085   
254     6357.25163   6583.11200   6387.04338   6375.07504   6372.45318   6562.48818   6437.68995   6332.22722   6496.15963   6433.18982   
255     6497.00855   6356.21628   6500.66587   6548.71575   6479.98818   6440.51347   6479.40456   6568.29355   6335.33084   6372.01761   
256     6376.54090   6602.35972   6501.65414   6458.14949   6600.86620   6434.63237   6497.42126   6431.49541   6426.66582   6529.79038   
257     6570.17119   6315.48002   6408.97867   6413.32764   6337.24245   6418.00983   6472.42075   6587.76040   6429.83575   6480.64025   
258     6487.35381   6550.11344   6587.21354   6409.34355   6467.62136   6399.84498   6461.89127   6574.67548   6396.09999   6414.78027   
259     6507.88275   6362.14358   6326.60226   6442.69523   6381.53863   6341.74974   6502.83480   6371.96590   6544.44251   6533.99254   
260     6461.92297   6501.64231   6567.92338   6316.76142   6372.65561   6576.13152   6329.54003   6388.18218   6458.44784   6319.20680   
261     6568.54939   6348.87992   6322.06678   6586.93367   6573.60908   6535.09519   6346.85030   6461.64699   6492.12870   6512.82396   
262     6464.09322   6382.68960   6432.37165   6394.78752   6464.12530   6505.08791   6539.36448   6393.81570   6345.73365   6380.69649   
263     6353.90373   6425.24022   6355.27275   6289.64681   6525.32304   6406.86818   6495.48066   6534.64112   6503.10187   6396.16507   
264     6486.36647   6340.35300   6490.95490   6544.77091   6498.25434   6447.73317   6448.85695   6514.33094   6448.48469   6524.24129   
265     6326.14575   6548.10780   6408.66616   6528.95841   6351.46357   6320.18112   6423.33614   6371.92914   6457.13611   6421.36820   
266     6409.21339   6553.24285   6483.30379   6380.43328   6296.99882   6376.70255   6380.89032   6505.13638   6428.38112   6372.15692   
267     6464.52628   6373.30824   6257.72054   6388.21978   6286.81822   6351.38124   6280.29337   6520.07595   6342.31049   6292.55154   
268     6467.90616   6418.83924   6310.33108   6260.00803   6453.24844   6254.76836   6513.34609   6439.14356   6405.41561   6319.53494   
269     6352.20334   6404.72633   6451.74357   6258.47914   6383.60883   6246.55028   6250.17209   6322.78043   6327.82577   6445.17546   
270     6373.25112   6290.48657   6182.53329   6239.07858   6350.26332   6407.57919   6197.34638   6309.50580   6221.90958   6353.38608   
271     6231.87820   6245.65910   6179.59224   6298.77371   6225.21885   6213.30868   6339.19933   6297.30063   6282.44555   6420.22838   
272     6372.08577   6379.33822   6397.39975   6176.43455   6314.02329   6339.39141   6340.34492   6273.89894   6322.45347   6285.13461   
273     6168.57904   6251.64990   6191.59013   6327.98043   6401.32932   6279.48892   6178.56061   6396.88422   6280.89080   6220.55635   
274     6103.14075   6057.43243   6168.97915   6353.08130   6133.68745   6182.99067   6114.05579   6318.89167   6218.87259   6217.62377   
275     6214.30555   6107.01446   6158.00523   6206.68402   6339.06125   6266.25021   6178.52963   6202.29866   6113.25405   6176.35358   
276     6189.56640   6064.12992   6202.85399   6038.89412   6007.77608   6023.34356   6171.51398   5960.70694   6126.64842   6116.05019   
277     6298.22559   6259.96658   6129.85183   6107.69054   6192.20418   6245.54195   6163.84036   6166.50644   6209.96627   5981.19246   
278     6159.47263   6035.05584   6047.74064   6089.32621   6154.34423   6136.86341   5894.50764   6243.32900   6136.78001   5913.42078   
279     6013.69693   6125.65328   5990.22818   6048.84494   5946.85294   6120.22524   6067.16325   6044.54968   6080.15524   6075.42348   
280     5955.12118   5996.39950   5868.89223   6171.05837   6057.13473   6074.48670   5918.01028   6079.94225   6024.40185   5920.58612   
281     5994.62198   5945.60835   5919.76268   5944.65162   5945.48248   5988.75357   6083.55116   6114.49866   6045.97817   5918.85275   
282     6079.22693   5913.26791   5890.08074   5991.44085   5877.81481   5938.08816   5743.01793   5914.43128   6000.28019   5956.95246   
283     5722.31761   5905.27927   5957.99101   5998.15909   5974.88225   5688.23839   5838.61960   6005.67977   5845.60798   5822.20397   
284     5838.91814   5939.82970   5927.80331   5824.35529   5732.95134   5821.49783   5812.57324   5904.30371   5948.31648   5744.66771   
285     5905.47521   5741.43012   5643.14463   5693.76578   5823.51660   5770.65224   5843.73900   5670.65373   5840.38514   5721.56064   
286     5596.13178   5838.08340   5760.14329   5663.19838   5600.38972   5757.11743   5540.28247   5708.47110   5869.75880   5708.59829   
287     5741.77111   5654.46003   5615.78699   5601.59300   5670.45677   5737.54995   5703.65746   5680.25309   5620.58925   5562.13851   
288     5520.62426   5552.52858   5519.25056   5554.98646   5541.61692   5595.43847   5542.49505   5745.89173   5736.79057   5737.19140   
289     5403.25297   5769.46201   5689.28206   5442.92701   5561.24461   5546.88430   5498.43660   5635.87424   5698.57973   5472.30797   
290     5421.90008   5529.31863   5536.31477   5691.27446   5422.00724   5451.47941   5596.14198   5427.07387   5499.69399   5515.10353   
291     5564.72207   5483.65562   5495.30497   5499.81295   5506.69358   5598.85458   5598.41209   5683.94585   5606.35342   5528.13897   
292     5506.58131   5508.71140   5323.33941   5280.30453   5426.72216   5497.16286   5475.07483   5397.00358   5340.91922   5426.36899   
293     5336.91187   5476.19757   5156.07213   5334.81631   5441.25596   5333.13500   5346.09246   5407.87425   5323.24736   5447.13267   
294     5218.78315   5406.33045   5140.33501   5479.61317   5390.95197   5366.05805   5397.86362   5354.60223   5292.81388   5361.07295   
295     5215.42359   5249.13881   5352.18526   5234.17941   5345.87880   5324.45613   5290.64009   5355.97878   5267.11550   5223.33143   
296     5022.23899   5173.95348   5175.05380   5060.81591   4981.20183   5118.00210   5196.18617   5127.35424   5375.54589   5009.26203   
297     5141.18200   5129.14698   5169.73737   5138.04807   5137.37031   5089.16726   4973.39772   5163.71094   5115.63374   5070.50882   
298     5100.92808   4861.79794   5076.00149   5017.48764   5038.49589   5069.41172   5141.72710   4997.50644   5148.02633   5154.55609   
299     4805.38025   5019.56201   4985.18534   5219.04982   4840.01165   5018.85430   5115.56784   4830.79849   4951.06696   5075.15134   
300     4846.32176   4842.71112   5019.06487   5001.34353   5103.71743   4943.14691   5017.57483   4973.89771   4926.28573   5044.70174   
301     4710.16689   4744.61479   4853.19062   4895.56573   4911.63177   4751.95109   4725.46346   4945.48385   4896.21528   4702.58353   
302     4803.40919   4808.48087   4795.91785   4746.88005   4830.44214   4759.12522   4829.12986   4877.04325   4823.21926   4674.36123   
303     4751.53754   4695.85036   4568.11333   4662.69162   4748.84494   4734.01329   4696.61013   4742.18533   4828.69493   4645.82845   
304     4596.55214   4664.12513   4750.38242   4687.14971   4462.15865   4804.02529   4697.74704   4783.29332   4540.12156   4534.26567   
305     4592.90631   4599.61995   4779.50986   4643.93560   4676.44552   4694.68477   4641.75917   4663.04340   4669.36249   4669.64545   
306     4600.95486   4361.10192   4592.46273   4618.87660   4578.46617   4531.14511   4678.95430   4563.11843   4519.34828   4570.11802   
307     4402.69570   4440.46821   4613.64555   4662.31482   4432.37941   4300.97502   4361.77183   4552.34155   4487.58638   4506.67426   
308     4289.96751   4624.73232   4325.64168   4504.72471   4348.01717   4465.34582   4290.13236   4539.32989   4479.74930   4495.42235   
309     4218.61972   4280.34793   4554.44190   4261.30288   4476.93411   4289.14750   4455.25214   4365.35355   4485.80920   4248.55587   
310     4419.41789   4433.95569   4375.83134   4319.39507   4396.66288   4170.84256   4261.80991   4319.90030   4339.60437   4417.03128   
311     4170.69224   4141.14701   4221.83227   4188.82577   4429.18278   4231.86635   4165.03058   4078.79641   4140.68588   4262.10775   
312     4096.63857   4120.15465   4145.66876   4262.13575   4303.89021   4175.42322   4143.68396   4121.37896   4270.00235   4202.03937   
313     4146.70768   3955.98242   4156.05203   4067.63555   4061.84276   4173.28328   4089.09062   3985.63948   4108.13611   4095.61079   
314     3958.57728   3951.39648   4065.07800   4152.18907   4096.81165   3928.21292   4012.27270   3887.53473   3957.15550   4153.45912   
315     3867.36649   3933.07818   3902.80172   3969.32779   4030.10408   3882.95546   3939.61395   3901.62863   3913.09077   3916.69024   
316     3927.25283   4021.30098   3855.04088   3922.18034   3783.74481   3715.58935   3929.50764   3829.89062   3911.09831   3827.53206   
317     3798.83159   3778.25175   3777.68011   3629.95508   3666.96680   3832.27264   3654.46732   3922.81289   3756.59506   3801.95145   
318     3788.91436   3665.43798   3622.14055   3733.58615   3837.56204   3818.99863   3794.72813   3720.33103   3729.97356   3846.99890   
319     3548.80954   3707.44952   3596.81342   3784.71912   3712.61153   3624.15292   3778.03417   3829.37378   3775.72782   3642.65122   
320     3548.85576   3476.98236   3631.15311   3748.96299   3418.79620   3563.70418   3732.49136   3649.80604   3561.58175   3600.03447   
321     3483.93693   3650.88037   3703.18601   3507.42377   3622.58893   3470.38255   3598.50801   3664.83734   3577.75643   3557.32422   
322     3551.50603   3536.17943   3684.67561   3447.55537   3289.59646   3452.80847   3541.93384   3545.02334   3342.87281   3478.28950   
323     3565.99113   3372.39928   3329.61489   3374.96227   3482.83047   3479.41350   3321.14494   3341.10219   3400.85642   3453.77992   
324     3176.97080   3261.07976   3413.61717   3228.04521   3148.26681   3390.32781   3147.79870   3435.89995   3371.45586   3417.44690   
325     3273.95147   3262.94871   3312.12171   3393.39821   3214.90349   3325.95284   3324.31931   3347.31561   3200.59664   3273.11153   
326     3226.64680   3234.27862   3271.75037   3192.95698   3061.10873   3201.07218   3149.12822   3069.93237   3226.45868   3214.29390   
327     2931.13194   3194.76493   3193.79892   3109.06361   3061.37850   3042.05885   3217.09302   3079.13666   3170.30802   3033.46590   
328     3201.45709   3078.01446   3072.28062   3127.90930   3027.30405   3141.19511   3153.25969   3138.99465   3116.74004   3035.13720   
329     2912.55140   3029.40117   3073.89124   2993.74918   2960.55818   2929.88409   2862.20065   2970.14614   2886.25285   2946.88500   
330     2920.59315   3007.65509   3094.52814   2971.39417   2960.67086   2954.37106   2836.43711   2912.54327   3088.82262   2975.86290   
331     2908.51635   2974.86929   2925.77504   2709.93841   3046.30404   2776.69828   2911.93262   2953.32967   2760.22232   2850.57557   
332     2877.25244   2806.88292   2780.82893   2824.74328   2843.35116   2873.47308   2786.98243   2812.07171   2881.83879   2854.69243   
333     2917.88509   2634.45198   2755.35750   2657.00737   2869.57637   2724.99527   2803.55628   2844.73888   2836.67437   2641.44434   
334     2692.30160   2583.55770   2734.59444   2844.22622   2616.38032   2519.86848   2757.07679   2603.54343   2787.92249   2748.36239   
335     2490.09012   2532.33373   2672.09375   2657.19430   2537.69363   2700.50780   2633.72471   2550.05889   2618.20239   2586.14429   
336     2512.04384   2693.49592   2558.22145   2670.12025   2456.71017   2620.68762   2625.45863   2487.20731   2622.36420   2554.50269   
337     2559.56078   2592.83775   2455.62563   2485.39387   2531.17178   2495.03373   2567.32494   2403.67813   2602.02671   2403.76180   
338     2504.98809   2372.90874   2432.09555   2475.01922   2284.69614   2546.68055   2514.12292   2311.60314   2447.21564   2315.64828   
339     2535.54625   2490.04758   2328.62552   2352.19100   2299.06004   2298.20033   2425.89186   2432.72784   2502.68468   2314.65439   
340     2328.15563   2314.02184   2402.82674   2285.45382   2455.78566   2165.29694   2418.01139   2361.25906   2440.60755   2252.24222   
341     2254.01073   2218.04697   2274.84926   2316.07531   2420.68459   2178.41098   2121.22501   2309.81371   2324.01438   2237.37994   
342     2142.10819   2260.58822   2179.49878   2172.97367   2198.45102   2098.36433   2281.25623   2340.06803   2326.34300   2235.66817   
343     2050.11071   2233.46614   2075.41863   2221.67288   2278.33920   2183.83456   2117.85268   2162.16650   2283.58171   2248.69330   
344     2117.33119   2017.83069   2247.63612   2114.53033   2076.32609   2188.98715   2092.77043   2070.65472   2141.48169   2141.95278   
345     2154.15226   2166.99747   2154.78137   2126.29836   2059.22958   2118.82053   2111.31356   2093.98400   2068.30358   1952.00081   
346     2045.15818   1896.42321   1996.50259   1897.59259   2094.30504   1969.57531   2064.12690   2117.68420   1948.25129   2029.23080   
347     1930.85237   1974.14112   1890.58429   2027.90494   2009.97134   2090.33079   1846.80191   2025.60166   1934.50406   1937.51432   
348     1902.77668   1925.35569   1914.24526   1815.43692   1993.55286   1875.58591   1881.83964   2020.12158   1920.49118   1962.48347   
349     1918.95487   1864.25417   1788.52149   1746.14522   1879.56229   1926.62556   1938.19643   1809.72168   1770.52346   1793.96600   
350     1903.87500   1788.20449   1826.34295   1889.64449   1850.49448   1842.42354   1900.35906   1766.50215   1835.67809   1723.07589   
351     1750.11201   1879.19101   1778.06967   1816.77407   1706.77226   1793.40327   1773.78441   1705.82252   1818.00371   1810.37429   
352     1661.74208   1640.93760   1727.08098   1660.81563   1719.14319   1627.31193   1650.77198   1806.09764   1649.73037   1726.27983   
353     1730.48747   1756.24923   1711.76146   1661.91779   1701.77353   1639.09958   1670.59084   1749.00509   1640.54575   1727.65516   
354     1651.16732   1653.39902   1630.89194   1537.35984   1527.08796   1688.59217   1613.70494   1714.18081   1626.48765   1579.97013   
355     1625.20314   1524.06714   1484.08520   1534.65679   1602.07201   1467.54903   1699.26013   1589.25042   1615.08994   1593.73784   
356     1421.64514   1404.77734   1507.73440   1577.35613   1475.64217   1490.67995   1600.61699   1416.47768   1537.92135   1624.60553   
357     1494.74345   1490.87921   1410.06794   1578.55576   1598.70757   1442.25892   1447.66116   1388.95037   1421.07368   1463.99462   
358     1472.65375   1473.69842   1419.60094   1513.03310   1459.36033   1493.87025   1416.50769   1491.74261   1430.90858   1364.26073   
359     1349.23322   1456.95382   1422.65372   1369.16717   1370.15659   1319.23355   1441.97492   1378.69599   1415.17290   1477.21834   
360     1451.75962   1394.12573   1293.04611   1411.49672   1390.07767   1280.17662   1430.94458   1305.72670   1480.30377   1383.79972   
361     1298.26207   1309.54679   1379.65382   1373.78774   1287.43716   1372.39890   1350.09612   1396.53548   1297.26187   1325.29509   
362     1320.54386   1345.84091   1272.45954   1253.42297   1221.82677   1247.99712   1301.39489   1322.93093   1399.33766   1333.84614   
363     1268.50963   1179.89025   1310.78133   1240.34918   1170.39864   1243.02795   1231.42590   1288.15475   1312.95332   1223.22853   
364     1205.06011   1197.70706   1271.48026   1176.15950   1231.53669   1269.32678   1211.50548   1192.21494   1194.04572   1228.47153   
365     1174.76542   1196.26528   1122.94718   1133.89538   1188.35361   1238.72382   1118.72656   1249.82928   1198.74379   1182.30831   
366     1118.12933   1160.42614   1171.55417   1158.95633   1179.06402   1111.44845   1089.34709   1108.67042   1200.33237   1157.85854   
367     1097.97321   1160.75079   1100.27796   1162.99248   1086.47565   1138.77933   1046.64317   1130.22358   1116.59312   1119.64750   
368     1020.22927   1157.71870   1137.13125   1053.80505   1068.86721   1157.64568   1023.14029   1169.19396   1098.23073   1097.48025   
369     1031.67103   1109.30069   1064.34084   1057.75267   1037.55391   1098.57156   1089.27267   1027.59992   1047.00585    977.61344   
370      991.20175   1053.40955   1091.13052    968.02864   1033.51157   1046.04562   1098.31408    996.86652    936.34689   1002.12894   
371     1025.30729    941.87885   1072.66934   1031.40810    965.27624   1004.33750    935.07271    961.08160   1005.85337    990.16221   
372      988.64117    958.47381    876.92074    937.73731    903.29127    953.76114    915.18824    888.94764    908.87744    880.10846   
373      945.79530    981.60876    905.56959    864.61375    888.65508    910.93508    896.25825    948.80293    891.61878    876.04594   
374      898.49524    901.00201    867.31882    918.83069    841.10397    948.59866    858.18343    888.68428    902.13350    885.23975   
375      865.86820    800.25269    874.53076    934.19456    871.52460    836.69020    884.03643    857.27075    877.30206    903.77967   
376      833.36105    802.58636    766.87610    809.14263    786.77392    816.70379    893.04883    832.64896    886.17015    821.75799   
377      854.72442    853.55344    765.08685    842.26967    846.45120    767.94063    818.75735    846.58293    842.74459    804.97265   
378      764.45029    810.67276    848.21211    778.81692    755.87366    833.77198    842.41941    751.23414    707.61058    772.59028   
379      745.32658    780.39266    786.83528    746.08043    780.33190    727.14039    791.40440    744.20128    785.52185    770.43088   
380      723.48621    738.09636    733.38494    710.25670    735.76173    739.96463    751.05977    724.12742    721.90132    774.18490   
381      717.16206    749.61132    724.20042    758.57956    673.86211    728.36304    762.42784    777.54069    737.73283    746.57249   
382      706.43761    689.56458    670.82718    670.74794    716.58735    678.55576    698.13936    655.49316    695.60625    677.52161   
383      712.39466    651.21020    663.45821    712.30738    636.18842    691.51547    625.25203    658.16548    707.29221    656.56905   
384      634.46350    637.36584    618.91100    618.71107    601.26853    609.70716    671.85447    610.75375    624.56866    626.98999   
385      638.16153    642.36053    600.56981    643.58344    634.19453    615.50664    589.66654    587.48440    667.33778    622.03511   
386      557.39064    652.69833    584.69607    624.00691    620.29613    588.25187    563.65546    597.22613    600.59386    647.23479   
387      573.02218    586.53039    607.22392    612.15064    552.66563    596.15606    616.88368    613.66366    623.87688    587.44102   
388      561.40855    586.32068    549.43088    528.94410    551.25281    543.46348    522.70022    586.58901    575.55155    582.41177   
389      534.82591    543.63797    514.29789    550.87520    564.78366    561.42807    539.34504    519.90476    557.61408    543.84027   
390      536.67672    561.39674    493.71080    536.04472    553.34681    527.27475    543.23253    529.66102    497.22396    549.47367   
391      518.49165    504.39972    513.08537    479.38580    521.10393    498.08437    499.19962    501.59716    494.53047    477.85177   
392      513.35010    529.86798    516.82298    475.80409    522.39005    545.59145    479.51287    474.72638    540.02145    541.16455   
393      455.36116    469.79228    532.64424    488.84751    514.79026    487.65756    464.72544    511.98037    507.51903    490.73579   
394      472.69106    456.04317    495.00080    446.35679    440.93583    494.63503    498.28295    485.17678    442.49805    444.45535   
395      447.68452    430.73399    473.16796    443.35019    454.92525    446.36314    445.75721    461.59949    467.29496    434.26176   
396      420.96306    424.56980    483.68889    448.48516    413.58619    445.36771    439.68801    467.95177    425.81244    438.30287   
397      448.89455    429.00034    440.21625    429.52229    411.54959    421.22873    429.52269    433.64296    447.41860    422.52363   
398      446.03716    393.87404    391.17349    420.30206    440.09455    419.19854    404.78049    388.27694    391.27035    413.86081   
399      414.11653    391.36040    408.69493    393.69531    390.95193    411.10483    448.37352    385.14512    411.05814    388.95836   
400      421.95658    361.80447    407.80368    396.79810    353.49041    416.84987    369.23285    420.36819    390.60628    372.63101   
401      356.84714    397.48892    377.94366    346.13270    356.73484    363.53518    397.71218    364.70096    387.65924    385.43692   
402      341.65823    387.32890    341.24076    372.10932    374.89108    346.33183    376.95665    385.23610    371.93331    337.81420   
403      340.48256    322.05744    361.69100    374.40907    373.22910    333.81728    362.64874    347.67788    335.48889    359.28580   
404      349.04056    360.46171    337.82142    356.37029    324.42970    321.53623    363.40058    338.22449    348.70771    324.49083   
405      311.12100    345.48127    360.15889    325.97032    348.15690    323.80986    319.70417    309.75814    332.48692    349.18607   
406      342.31622    310.30635    317.62452    318.71615    307.52289    318.95259    311.80162    314.94903    319.52501    334.64207   
407      314.85035    306.09793    301.43325    314.77053    316.09324    302.66749    308.33669    308.06171    309.26955    281.18489   
408      292.73822    305.07510    303.70895    321.54690    305.68184    308.31500    313.39137    310.45047    314.09095    293.01370   
409      307.29370    283.96238    315.52740    269.90371    314.97076    326.76134    280.55108    304.68516    305.28099    312.78322   
410      292.70281    288.24144    318.92231    267.42797    282.03754    311.71661    284.68833    299.83964    303.75879    289.59199   
411      291.17300    278.25446    282.41211    291.20499    283.09979    278.43970    275.78057    303.73814    275.58034    276.85097   
412      286.33649    278.16287    259.00154    262.99596    284.42185    266.19738    280.27758    283.34813    263.46197    252.66106   
413      255.64232    274.53803    270.26104    258.96448    261.84256    264.68305    254.40108    260.69295    261.09718    273.28982   
414      245.44234    261.58680    248.56988    280.62491    255.73447    276.82545    258.28776    258.66044    266.50540    251.62025   
415      252.64836    271.42339    255.95364    247.42783    255.66429    268.10293    261.66911    266.82096    257.36525    252.60494   
416      244.15294    264.21145    236.80420    239.48048    256.53480    247.97322    252.12553    254.77654    242.06176    237.30280   
417      236.80517    235.54411    240.95530    237.73140    226.69184    236.71042    249.69480    238.09630    232.30618    247.96335   
418      228.26820    245.75176    233.53918    241.53813    229.30401    223.00332    240.25914    232.92116    241.95284    237.93360   
419      221.40874    240.17604    216.13082    227.58170    231.08607    232.25639    233.60801    231.61345    227.28065    232.36082   
420      222.90327    211.77363    218.17761    227.87053    206.13446    229.73725    215.83305    236.07215    227.71597    212.09020   
421      226.28160    218.52569    205.28902    242.73501    233.96850    223.01850    233.68312    225.49697    215.45395    223.71826   
422      215.15638    202.90401    217.42980    209.13354    213.37753    213.90048    217.15590    220.22926    197.70604    213.50391   
423      203.57052    199.41693    207.00541    216.92992    212.99217    213.75358    209.52176    200.05722    200.14072    204.33660   
424      199.56390    204.36558    207.56611    201.98629    191.89767    196.04247    202.58884    204.78094    199.37593    202.27326   
425      192.19280    220.42863    205.27927    203.54535    190.03787    193.65193    210.49292    197.42028    210.59316    193.98007   
426      195.84518    182.15343    200.05961    203.86315    187.05039    192.34501    191.50834    189.52996    189.58899    194.21171   
427      208.71068    188.37275    191.97514    196.80822    189.67332    189.32731    185.30809    210.03420    195.48656    181.47785   
428      196.28495    186.01008    200.26554    184.75432    185.22750    184.70159    201.95755    182.74565    185.62558    196.91497   
429      193.01756    183.62891    181.02073    182.84200    192.31844    171.33430    197.55888    177.84471    173.49994    180.82959   
430      179.04262    176.79397    175.63247    178.74641    192.18497    192.75045    183.78709    175.76488    183.26742    185.37352   
431      165.42807    172.35383    183.36669    171.24265    169.23862    179.33515    172.05165    180.21443    183.74370    172.01601   
432      164.59237    178.11620    174.78267    175.06514    171.99016    169.72189    180.17775    182.18752    174.33552    184.61204   
433      162.83474    170.13455    173.73139    164.14108    168.43236    163.52769    162.16689    170.73389    161.23486    167.36713   
434      170.91954    154.83892    165.67170    174.02388    164.81344    175.73315    162.16127    172.94212    176.92515    167.89884   
435      169.61200    175.83313    167.31078    160.21426    165.91298    177.87076    168.81319    167.02104    172.87420    162.27556   
436      159.67566    172.52545    159.78699    167.66311    162.60193    161.74774    161.89943    156.46264    166.71986    158.93002   
437      155.55619    152.81878    156.46499    165.42177    158.54526    161.31704    160.31276    166.06828    167.39468    159.99331   
438      153.48083    159.29239    169.30720    162.01271    149.00449    159.30297    150.64226    163.89612    152.89812    157.02757   
439      159.06473    155.16322    159.54083    153.04432    161.39928    160.08056    151.57465    162.63458    153.12462    154.75916   
440      150.15589    147.07356    160.13881    151.74514    149.65402    154.03477    155.35695    162.59362    153.52157    150.66184   
441      153.52119    147.14309    156.43424    154.44427    157.72448    145.59997    152.71151    149.23757    153.83921    155.65411   
442      156.94974    157.67186    151.04645    152.52714    148.31258    159.55855    141.65478    145.96039    146.24281    145.58005   
443      140.26261    152.42340    153.98791    140.95795    146.87093    149.32103    146.97703    140.54814    142.20554    143.21473   
444      149.83345    149.38718    142.24467    140.67996    147.45838    158.64380    149.71755    144.07876    140.26741    156.28323   
445      140.77328    142.78248    150.41631    143.90460    139.98034    149.98035    149.32871    139.77872    151.40277    148.27576   
446      147.76207    151.19731    135.74218    153.44151    145.55660    136.55511    134.78375    135.38038    148.04365    144.05256   
447      148.33300    148.80922    147.04559    140.32502    137.63341    147.74706    144.50777    138.25959    136.98853    143.35330   
448      139.05234    138.14533    138.26241    144.12029    142.78846    138.92264    147.37472    146.84683    136.89446    131.15329   
449      141.39754    130.95175    130.73440    136.43693    137.03800    147.24053    139.00862    140.10669    136.32368    141.19999   
450      140.81611    141.80164    134.25573    132.27105    135.05226    130.64352    136.53464    144.85258    138.13844    134.58316   
451      132.66199    138.49329    132.55943    135.82393    140.25359    137.38016    133.95492    131.25156    143.00446    138.89648   
452      132.07567    131.54828    143.33769    140.09927    137.48139    127.56626    135.97413    131.97961    143.54474    139.30646   
453      136.91710    139.18152    126.65067    139.09698    137.97462    131.20755    136.95955    144.78779    129.51088    129.72986   
454      139.49051    138.81866    134.78608    129.34287    134.75368    136.50944    130.18077    139.14932    133.49838    131.97522   
455      133.22705    130.99775    135.82254    134.41516    123.88399    134.34446    127.05333    128.01582    137.10496    130.98805   
456      129.15962    127.91924    126.10896    139.67514    126.24546    135.76061    135.41411    134.97467    124.55641    133.70410   
457      136.13994    135.78700    131.81295    126.99004    131.85099    131.89241    127.31919    132.13168    129.51173    126.01981   
458      133.34863    131.49755    130.32230    126.83553    123.94683    127.59138    122.93077    126.70277    133.32390    133.05001   
459      126.73631    122.52686    124.13612    129.93552    125.14163    123.78606    132.02397    131.21469    131.69176    127.67884   
460      125.56047    125.32692    125.21204    122.64694    133.35528    127.21090    119.76221    130.07947    131.64520    124.77812   
461      126.85578    122.12851    131.77899    124.97659    132.34497    132.13571    132.95839    129.02393    131.24073    123.12374   
462      132.29669    129.10651    124.00464    121.11149    122.12770    119.44419    128.93879    122.20683    126.40849    132.88454   
463      128.23120    119.23600    119.18978    127.22606    124.86006    120.73531    127.04552    133.34837    129.59695    119.93590   
464      129.46011    120.10267    123.82066    131.04399    122.73612    130.14074    127.01708    124.75618    131.71596    131.98536   
465      121.27820    128.59692    126.14198    119.12394    123.77890    123.59667    130.52828    119.13099    120.71914    128.24226   
466      127.71610    118.70072    129.28906    121.84440    122.15583    122.20696    131.78673    122.07774    124.59779    128.32511   
467      117.31178    127.85089    117.29404    123.87146    122.29195    121.89090    117.87543    123.99813    123.93964    118.47645   
468      124.41793    118.21483    126.47686    131.92323    119.03436    119.05465    125.95931    120.96445    121.85124    130.22744   
469      120.82783    130.58259    130.66924    120.29400    115.92366    125.53719    117.88867    117.05708    117.43773    129.31213   
470      126.74979    130.02513    128.09703    117.15215    117.26819    123.49406    121.75054    118.61059    121.07253    127.49563   
471      119.28437    125.34880    128.16854    120.28055    117.13313    129.20570    117.53426    115.74087    128.64763    120.00949   
472      128.43692    115.68767    117.48839    118.85001    124.01267    115.99747    118.33767    125.79265    116.15471    126.33347   
473      123.35294    118.73914    123.52247    123.36941    122.90157    117.30854    123.03861    126.62673    114.74674    122.49468   
474      124.83822    116.70022    120.17544    118.83239    119.11928    115.42301    123.06393    121.61954    123.35998    128.21252   
475      126.63988    129.10050    128.09795    128.59665    120.10245    120.67869    125.86291    125.94038    122.69681    114.81914   
476      127.89545    127.76057    122.17358    124.77694    127.63648    120.38059    117.88181    122.61175    122.74273    119.77179   
477      125.87301    123.97015    114.32794    124.75204    115.49995    119.77809    127.09122    127.14033    116.34950    113.91094   
478      127.42349    120.49310    123.05151    120.08835    122.97577    119.03793    113.70387    114.56810    113.64206    127.78496   
479      126.55990    113.06759    124.78270    118.09808    127.19441    115.46349    115.76658    118.20744    125.94976    126.96918   
480      118.60595    123.20157    115.59967    120.64101    116.98934    127.63909    118.38564    120.59843    118.92670    115.24399   
481      117.34699    117.32350    117.61966    119.10774    118.45513    115.61131    124.81211    118.25952    117.70356    123.83569   
482      126.21269    120.57836    126.12169    115.80879    115.31318    118.62418    124.67579    121.15783    115.00891    118.01971   
483      124.17244    115.77286    120.62145    122.67204    117.38533    112.26309    118.10468    119.00478    124.11504    121.71569   
484      120.83622    117.26576    119.64993    118.47361    125.38254    120.84157    115.71839    113.56771    112.65108    119.03206   
485      116.22425    119.02323    125.24672    116.22267    112.22784    121.07718    126.10762    125.09907    114.79181    123.90242   
486      119.81078    113.77987    126.80213    123.77376    114.06234    126.39172    121.07680    123.54901    118.78351    114.03235   
487      122.56912    126.33941    116.47278    120.07929    112.73822    111.59928    120.40536    123.09267    121.29958    125.85262   
488      119.08832    123.50169    114.99930    118.68528    122.94657    115.25919    119.83809    123.43494    116.74757    116.66133   
489      114.11034    115.70375    118.99915    114.20571    118.18236    124.41898    118.41609    112.05769    120.89108    112.00668   
490      117.14262    122.12881    116.56584    126.23980    113.41259    120.74398    124.87684    122.99325    115.99354    116.31113   
491      119.73502    125.57918    116.66896    117.34601    117.08923    125.08915    121.89318    118.21962    117.39124    117.57684   
492      111.23221    116.85904    112.49916    123.71220    112.53276    113.46753    120.77467    111.95659    121.53210    118.70447   
493      125.20006    121.35008    117.61588    111.30478    123.80503    124.16667    113.13178    117.48103    115.81858    121.80942   
494      125.79322    112.63635    118.57125    116.66420    119.19860    123.57264    115.53453    116.57534    120.76982    112.44343   
495      123.58803    111.14553    118.10637    120.16125    125.73797    118.94943    120.61248    121.86012    122.65924    124.56798   
496      119.85366    120.80203    114.61686    117.04931    122.08045    122.26452    124.96400    123.39230    114.66866    122.06655   
497      119.67327    120.29460    125.84357    113.04163    117.54103    122.98162    115.54553    116.64282    114.16392    124.23604   
498      125.64505    123.33924    117.03204    110.97707    118.23131    117.87634    120.57433    117.23268    118.75285    123.45583   
499      116.22375    123.04794    118.12934    115.97930    118.76834    125.53972    118.69731    112.51975    112.57198    113.64606   
500      124.62322    124.93690    114.44853    115.42472    118.33321    115.37969    118.60496    123.50402    116.62179    118.37239   
501      119.35790    125.12237    119.08605    112.66471    114.64516    113.07594    112.22195    121.36791    125.08468    115.02808   
502      118.84986    125.08986    115.28567    117.75440    121.70255    120.74965    123.09378    111.59267    114.33321    125.40587   
503      117.67025    116.30013    115.82102    110.82724    113.34563    111.05542    121.87559    111.22498    123.60464    114.17375   
504      123.30358    114.23265    122.80442    120.34649    114.06130    117.17984    118.63938    124.96124    125.02984    115.58989   
505      114.40610    111.07864    118.61037    113.97274    119.29318    119.66521    118.46989    117.60809    118.81459    117.44430   
506      114.41701    115.79043    117.68287    123.95631    120.60430    118.92250    121.75665    116.04894    123.36531    119.23502   
507      121.35454    117.21739    112.78759    122.11367    110.66432    111.47959    111.24541    121.66595    123.89814    119.22171   
508      122.00401    112.33239    123.90694    122.80940    120.76166    119.93591    121.98950    111.06050    111.99116    117.76487   
509      111.24676    117.12078    115.17115    111.09000    116.11646    119.68555    115.72514    123.52627    120.43373    125.02886   
510      115.53586    111.61837    113.25364    117.29864    125.03847    114.42897    111.56474    118.70206    124.40426    118.46022   
511      122.87701    121.00059    121.34557    119.42669    124.31899    122.98261    115.37721    124.60611    112.70476    114.58990   
512      110.66431    118.56935    110.91106    121.89872    114.46693    117.09833    123.31176    121.27266    116.24345    115.78603   
