SLC Damping Ring Gated camera results.  10 e+ verical profiles at I=2.00mA.  
The distance beteeen each pixel on the gated camera is 1 micron.  
Pixel    Pic1(Counts) Pic2(Counts) Pic3(Counts) Pic4(Counts) Pic5(Counts) Pic6(Counts) Pic7(Counts) Pic8(Counts) Pic9(Counts) Pic10(Counts)
  1      373.13394    366.30381    361.50142    351.43167    381.38018    354.28414    378.61430    359.06892    368.38936    368.45881   
  2      379.11696    375.91517    360.08205    375.40784    371.07638    378.09181    369.37846    387.02286    381.02927    360.36782   
  3      385.54507    376.23960    386.66601    372.53036    376.55830    372.43676    364.30642    379.81000    373.72861    394.78940   
  4      400.67265    383.02464    380.94232    377.88368    381.69671    400.08503    377.22862    376.37839    386.55675    384.96331   
  5      399.44846    386.92861    403.72780    383.91476    394.14869    386.85662    384.39967    387.96324    376.45091    372.53741   
  6      386.06327    411.34829    378.38862    398.32494    401.15472    399.92525    399.20545    404.29731    389.97872    381.98329   
  7      404.92086    417.32353    408.71641    398.52700    392.11801    420.42423    403.83158    411.40607    418.99031    420.53273   
  8      415.63889    409.78374    424.68436    406.03258    400.32191    404.73855    417.59892    412.37043    411.85441    406.25334   
  9      442.10425    437.21127    412.29266    401.80766    421.23186    450.22475    417.91298    423.33101    443.17559    425.88896   
 10      438.51178    401.61700    427.14255    443.16712    434.88230    412.17964    418.06044    416.02003    439.47861    436.73793   
 11      441.47144    437.84438    425.60841    454.25949    421.45593    453.06388    446.53597    446.80254    443.84527    428.22104   
 12      460.65891    459.16063    444.88944    436.49745    432.68900    437.65793    438.64826    456.63601    453.08492    468.20735   
 13      447.44796    470.45870    440.33700    473.31037    440.37809    473.92984    474.27007    480.33028    440.05608    475.48212   
 14      458.50239    464.29206    475.28413    478.10759    451.35634    479.11161    467.98109    493.24028    459.29994    488.95357   
 15      477.54357    495.32014    471.66533    485.82310    483.60090    496.77220    445.91381    460.33907    464.07317    457.36597   
 16      489.31358    475.52150    478.68950    506.76307    484.66709    495.14603    500.16686    479.66249    498.38913    491.64934   
 17      519.79782    489.99242    507.55787    493.87779    503.74821    505.35990    519.40739    488.32771    507.22243    496.79092   
 18      498.87676    524.35293    505.91010    521.30297    517.22505    513.75723    503.27990    522.60384    479.06982    500.82921   
 19      517.52295    541.71028    513.36655    494.78399    501.35273    527.90400    531.53101    527.13325    496.15294    531.16820   
 20      520.40084    548.93076    549.12920    501.42919    554.58482    544.23206    536.87310    508.79272    513.05047    520.56942   
 21      539.02287    553.67934    531.50415    542.87967    526.37027    520.77386    545.42954    548.73203    548.19587    538.49271   
 22      531.23462    571.82945    547.53687    564.08829    565.16818    537.62551    570.20960    530.58474    584.29344    543.76605   
 23      563.60208    537.72016    547.76322    560.26071    554.87348    569.30545    523.26472    547.91622    551.34059    538.94301   
 24      576.00247    556.79087    590.27272    578.74092    572.04662    575.88887    596.92873    586.05071    584.63182    597.60498   
 25      569.62828    573.70811    558.12689    587.35261    587.56650    584.87180    577.49032    612.64420    567.96989    587.22014   
 26      615.25810    581.09210    599.44560    608.36712    585.67322    616.35308    614.98754    590.33789    595.27045    587.50422   
 27      601.70323    588.25044    615.91185    645.22171    631.43999    607.47278    595.03983    617.70484    591.22779    619.11611   
 28      592.93684    575.43872    611.57194    616.12093    630.77967    611.70630    601.69596    624.88697    642.01661    606.52361   
 29      641.45773    601.56663    668.19792    620.03751    658.16082    606.62529    630.17476    592.73462    609.11235    604.99697   
 30      651.41869    642.28090    658.49747    642.12265    628.40203    675.90601    640.14830    655.40539    663.70230    645.95574   
 31      653.68457    689.68383    656.38073    653.31416    652.82308    636.04854    666.95413    678.09308    685.26476    679.33166   
 32      644.14315    683.65461    650.57553    688.88683    654.70509    676.20566    654.63512    699.83929    660.80504    691.37414   
 33      684.10561    683.25198    690.84456    655.85686    664.57086    693.92092    705.01352    680.17223    667.79493    676.68411   
 34      690.64156    725.65576    711.18619    681.41413    712.74672    698.98343    732.70739    647.80250    712.02997    723.64966   
 35      711.68174    713.72601    694.32966    731.44764    681.73046    718.27927    689.51808    737.69093    697.27110    672.93205   
 36      709.46772    703.65195    734.20885    706.97405    742.70581    718.21787    720.36035    715.99099    735.23755    723.30768   
 37      755.45058    733.68365    754.16297    746.47615    760.95598    740.52926    725.25978    714.22305    731.59810    732.05940   
 38      735.04080    780.33796    745.69678    770.06073    734.78623    722.78072    750.08980    763.66732    727.80913    768.54877   
 39      770.21383    761.37984    753.13067    772.06471    750.34088    753.05400    749.48920    779.80289    752.38584    777.56439   
 40      751.70861    777.68421    797.75801    755.08161    767.07451    769.22931    763.86546    790.09396    795.92772    748.75444   
 41      827.66956    788.37553    815.02785    825.81380    809.65303    762.48259    781.13016    812.11033    808.76705    774.54807   
 42      803.17130    841.44705    816.36334    815.01439    805.86310    797.77888    824.57196    807.53716    846.34463    827.06268   
 43      790.05982    821.72457    866.44133    835.01535    813.45419    819.37737    813.31207    866.29504    839.97158    821.34478   
 44      841.97695    833.88647    884.09462    869.54714    819.63918    848.52480    843.88405    832.87150    804.44089    833.10595   
 45      858.59352    841.46542    868.06124    881.66833    851.41934    892.32749    846.66192    820.76463    849.84075    868.59111   
 46      873.84490    863.75620    881.61843    905.00909    837.97133    867.07855    860.86999    922.04881    873.95860    893.54408   
 47      890.40472    902.67528    847.97293    911.06089    874.21066    937.74910    870.15896    906.43905    874.74741    887.58669   
 48      887.68956    895.84245    912.72286    934.60522    900.95045    921.23264    879.21560    849.80844    885.92097    900.28775   
 49      917.87111    927.24445    909.34425    886.44044    928.40870    950.83292    927.25154    938.08265    924.71770    920.37371   
 50     1003.05419    934.70178    965.35600    995.24968    927.91606    942.33253    919.59651    933.97357    931.24841    929.61716   
 51      949.93124   1017.84109   1023.58443    950.32098    986.36612    934.48789    946.00391    972.02034    972.21247    966.00707   
 52      928.47698    987.60305   1033.16289    939.59776   1030.52907    975.14336   1003.98499    958.19205    982.23605   1018.16002   
 53      970.16753   1021.93389   1031.05980   1049.37742    999.61197   1045.58555   1042.85175   1006.29218   1020.22605   1002.31287   
 54     1038.95560   1042.92618   1047.86039   1062.58610   1014.56887   1056.44492   1052.42657   1042.98967   1056.21740   1044.31117   
 55     1051.12009   1031.02098   1017.81034   1062.63613   1032.68268   1050.13911   1091.77231   1051.90008   1066.53882   1064.88151   
 56     1041.21835   1053.24065   1100.10264   1076.43542   1038.23728   1090.07535   1033.36537   1054.96463   1104.39773   1054.06465   
 57     1080.32151   1112.81496   1079.33450   1104.38747   1089.21333   1138.11813   1129.14753   1055.36346   1108.54716   1095.09736   
 58     1073.47783   1090.72635   1152.34327   1111.00777   1131.46122   1174.72130   1087.33837   1103.65085   1117.01327   1104.02514   
 59     1116.33934   1090.73880   1205.95945   1143.92470   1111.75744   1112.21392   1083.54136   1131.16754   1149.03153   1110.34196   
 60     1163.26626   1196.90245   1192.77274   1107.36124   1157.05662   1181.15959   1177.52952   1187.54295   1130.68910   1128.58373   
 61     1146.72936   1167.32104   1172.33030   1199.33943   1190.93503   1206.53291   1188.51464   1201.18527   1173.23368   1183.84165   
 62     1229.84613   1186.02446   1183.13137   1198.83992   1229.07103   1162.49786   1221.43841   1202.19559   1263.95678   1164.57650   
 63     1166.88322   1232.12881   1249.51619   1229.36262   1233.24695   1245.26749   1204.92014   1202.66055   1211.42452   1234.64267   
 64     1216.92163   1188.59142   1265.98276   1242.14255   1175.36305   1303.25798   1226.52637   1243.94978   1245.23639   1208.92522   
 65     1262.15998   1247.51324   1319.62059   1270.03578   1216.11316   1251.58431   1260.82319   1259.10757   1200.78511   1334.33009   
 66     1220.46655   1337.19166   1338.28484   1273.99140   1324.10412   1273.31275   1235.81242   1270.69795   1245.52333   1332.78943   
 67     1353.26060   1307.47948   1324.56735   1322.76932   1232.41664   1270.14674   1301.72457   1295.50588   1325.77808   1318.34261   
 68     1397.74473   1370.07709   1315.29244   1383.00883   1290.27184   1365.46186   1323.83089   1359.26114   1355.14989   1408.25045   
 69     1351.66230   1393.84704   1344.37656   1313.08824   1387.39594   1378.09857   1385.63246   1351.97997   1340.16087   1358.46473   
 70     1435.96124   1318.57367   1351.17848   1423.16762   1319.40688   1460.89347   1391.99013   1352.98145   1425.46021   1380.20419   
 71     1369.48094   1375.45403   1403.49215   1377.36967   1399.40964   1395.80119   1472.17706   1373.95817   1397.76031   1392.48567   
 72     1423.31022   1431.75768   1417.30550   1427.31089   1389.07687   1501.84786   1487.04367   1502.48074   1526.03151   1442.81965   
 73     1466.53621   1459.05193   1521.02849   1461.97311   1383.88282   1444.56728   1428.75332   1504.65455   1444.01358   1499.92392   
 74     1451.65098   1457.07224   1476.03843   1505.82530   1542.75894   1562.40010   1512.47953   1537.44538   1436.89774   1448.05686   
 75     1491.16966   1511.33524   1543.19212   1482.77759   1537.11671   1503.64162   1448.59747   1542.38245   1494.17666   1549.96580   
 76     1514.98099   1620.64439   1526.70550   1518.84040   1528.21301   1580.68963   1549.67759   1577.29843   1531.36610   1548.18988   
 77     1582.98636   1505.84262   1587.36557   1598.47762   1613.03254   1574.06038   1616.68095   1592.41788   1563.41850   1592.52510   
 78     1667.08313   1648.78579   1635.76436   1608.87524   1559.00410   1607.13274   1697.87527   1606.90744   1704.15219   1519.19040   
 79     1618.14816   1603.56363   1700.30267   1693.16951   1601.09479   1598.12857   1578.94283   1657.52767   1676.95639   1678.23870   
 80     1661.73269   1665.44753   1681.95768   1642.72084   1637.32406   1723.91972   1671.10014   1596.07143   1739.29514   1664.34107   
 81     1748.09077   1704.71589   1693.56870   1734.79851   1692.95117   1738.04109   1660.82527   1737.84834   1651.50217   1701.67937   
 82     1762.29866   1718.98389   1766.96881   1757.92039   1750.76190   1775.03603   1710.24590   1652.50928   1725.95520   1768.11257   
 83     1766.06692   1715.57083   1730.06686   1743.51835   1828.89543   1801.51579   1731.84171   1798.98400   1773.70838   1786.21317   
 84     1836.73993   1826.57369   1823.65147   1803.74340   1777.91004   1837.57597   1783.03718   1791.28577   1750.49311   1782.91236   
 85     1860.66032   1791.27289   1851.21176   1824.68044   1869.37912   1798.61072   1872.99767   1837.23009   1781.42387   1895.13291   
 86     1943.61369   1891.52409   1817.31495   1892.76424   1888.38803   1871.91744   1873.03647   1764.47382   1796.57176   1792.32287   
 87     1839.51108   1874.52940   1959.83072   1839.46114   1966.93151   1862.27683   1812.53886   1811.33916   1860.95586   1852.08774   
 88     1950.28181   2013.94444   1891.30550   1901.71483   1889.63781   1848.78044   1983.16201   1887.44474   1937.42498   1852.13046   
 89     1941.28726   1880.36718   1929.24833   1941.03727   1890.06532   2019.55840   1902.61406   1908.56255   1912.90712   1967.22809   
 90     1978.22943   1999.75018   2006.30166   1963.91543   2051.37681   2011.54534   1880.75127   1975.40928   2001.10149   1945.38965   
 91     2030.83576   1996.00692   2017.10733   2041.11481   2026.84004   2060.53920   2040.71056   2091.92364   2040.75713   2064.21728   
 92     2056.53238   2025.75011   2009.63289   2057.92548   2028.86738   2005.36728   2047.46515   2061.97789   2056.48419   2023.73232   
 93     2091.51205   2152.76997   2145.26407   2086.68915   2135.31992   2133.03986   2091.42071   2060.12632   2143.12335   2098.19823   
 94     2089.90678   2181.44987   2129.64711   2126.60418   2125.88179   2054.75857   2178.91456   2181.81791   2118.35085   2141.75200   
 95     2198.07756   2180.68236   2063.45424   2186.91069   2118.87953   2222.88098   2148.23539   2163.23870   2178.73336   2170.49244   
 96     2143.75773   2179.02781   2204.67319   2276.40620   2163.96892   2228.99776   2249.69618   2088.71288   2208.52852   2135.40646   
 97     2181.65291   2280.29392   2313.36876   2154.60502   2247.81976   2169.27068   2241.33423   2189.98073   2260.20351   2287.04016   
 98     2224.90702   2207.69532   2297.46165   2221.76564   2192.17043   2228.00034   2270.71307   2226.68109   2243.51595   2228.60847   
 99     2239.03776   2312.23697   2317.72753   2364.54013   2285.04580   2271.86974   2320.81306   2365.58877   2275.23334   2353.43643   
100     2270.88355   2355.38954   2381.04901   2322.15540   2257.50035   2433.08807   2392.57687   2291.96187   2317.79858   2285.05453   
101     2361.72653   2481.26229   2464.86775   2397.41744   2481.97468   2465.72746   2375.92012   2373.53517   2432.93690   2303.93733   
102     2382.48367   2364.78623   2391.72429   2423.08753   2354.34073   2363.67763   2398.27424   2364.79585   2467.48417   2478.17758   
103     2453.62174   2563.61234   2461.80047   2397.53311   2403.02725   2415.34885   2456.68612   2406.78479   2451.24770   2400.50255   
104     2473.43672   2553.96560   2527.66838   2501.81237   2487.61946   2416.00053   2504.94940   2523.49342   2513.34219   2487.04807   
105     2566.00448   2440.77066   2585.86211   2622.59903   2530.12505   2446.11474   2538.88748   2520.59346   2579.77868   2557.80772   
106     2543.33901   2590.29956   2586.49950   2629.16187   2563.61195   2591.11592   2503.13099   2556.56030   2591.47203   2574.88513   
107     2645.29142   2647.62374   2698.53126   2638.41632   2586.25826   2584.30060   2511.16746   2574.27716   2759.62750   2641.53054   
108     2663.28049   2605.34133   2651.97430   2568.89053   2611.48475   2651.72251   2671.63615   2668.52843   2664.15968   2668.74956   
109     2611.04586   2743.27323   2771.01082   2820.29982   2633.29969   2625.10029   2662.71938   2696.19799   2725.67730   2585.92161   
110     2712.47293   2696.61469   2792.26387   2752.05131   2829.38894   2730.14832   2748.90632   2857.60137   2743.19844   2675.03677   
111     2793.58929   2671.93569   2832.12741   2792.62830   2829.78032   2712.83996   2857.21416   2896.05483   2708.49142   2765.68307   
112     2764.69680   2920.06417   2706.49487   2781.05615   2753.12018   2813.46556   2886.40252   2899.11146   2818.15615   2798.63544   
113     2759.80757   2870.98097   2817.67713   2837.90621   2860.33062   2938.13975   2803.61148   2804.55106   2950.45552   2868.65532   
114     2825.07185   2862.69673   2871.74805   3018.44058   2830.40472   2923.42212   2902.17122   2891.86960   2968.10406   2825.27511   
115     3007.83641   2934.82064   3013.91519   2863.85112   2961.82450   2937.38903   2871.39484   3046.67960   2962.48682   2870.99535   
116     3018.45162   2936.89316   2958.68370   2999.53082   2923.60815   3021.24108   2963.60892   2972.61791   2956.23720   2953.99112   
117     3124.85103   3171.85843   2989.41819   3149.97625   2985.13525   3141.53785   3018.62004   3116.41984   2996.57756   3018.24459   
118     2977.27788   2940.52300   3009.27893   3097.72849   3055.43849   3053.53747   3029.00405   3062.94574   3136.88533   3121.48741   
119     3025.19011   3169.42195   3083.79662   3193.42865   3061.58697   3143.03723   3071.34558   3185.02192   3050.67522   3150.60894   
120     3179.95745   3307.69217   3120.35431   3054.27570   3171.63118   3176.23477   3114.64524   3157.52757   3219.30484   3189.41478   
121     3283.91454   3127.07417   3250.06118   3264.45816   3153.39430   3202.79719   3221.21430   3271.77932   3218.97014   3139.91213   
122     3236.99100   3242.31488   3219.46348   3217.99974   3232.29926   3156.25559   3294.81745   3316.53741   3322.36088   3269.22793   
123     3316.83053   3284.73341   3242.83763   3337.63267   3334.58755   3293.41360   3219.49030   3270.08184   3347.78935   3271.59513   
124     3371.73238   3351.85416   3260.93716   3333.93744   3380.63575   3247.87768   3274.84655   3298.02491   3342.39394   3513.59729   
125     3309.56898   3447.03496   3353.58995   3448.53646   3445.62441   3475.43823   3404.26454   3471.12025   3405.65585   3406.26799   
126     3493.95610   3495.35454   3454.43991   3340.92920   3540.75351   3404.26306   3486.30167   3514.65284   3396.91547   3419.55420   
127     3476.63252   3575.65588   3592.94344   3445.03157   3416.45071   3556.86922   3472.85372   3549.81082   3592.50084   3523.92281   
128     3403.64262   3547.77885   3587.93345   3578.59831   3554.29223   3461.68363   3505.63516   3463.49291   3598.73724   3410.63825   
129     3571.53966   3610.79807   3655.53510   3568.99910   3499.79707   3516.15583   3532.88864   3590.76327   3587.92440   3653.57774   
130     3667.44570   3646.49331   3698.31115   3633.90287   3631.70023   3782.59713   3590.03644   3745.39103   3583.26923   3597.29795   
131     3740.37044   3675.52379   3742.20789   3760.50389   3623.31298   3657.24770   3825.49842   3719.93069   3735.93562   3646.78585   
132     3705.82218   3591.91727   3771.91373   3752.94109   3800.87885   3852.81423   3728.65184   3768.54553   3811.59212   3795.38225   
133     3846.48836   3774.05311   3783.47299   3865.10499   3741.24781   3682.95873   3735.57046   3764.12801   3759.36807   3747.96936   
134     3856.65687   3950.05403   3733.80842   3882.12106   3850.27276   3890.95265   3878.32943   3801.75822   3794.43319   3837.96580   
135     3798.17587   3946.86364   3799.14882   3887.01621   3877.79370   3881.11620   3875.28653   3827.57315   3865.48600   4019.68238   
136     4001.13305   3902.28390   4055.50188   3886.01724   3768.93718   3937.90130   4006.87238   3824.05841   3908.28440   3938.07384   
137     4045.74373   3944.93274   4095.00379   4115.31030   3914.17493   3923.38649   3903.31152   3985.88186   4053.31878   4092.72985   
138     3982.69679   4033.34505   4089.50219   4001.07300   4008.99229   4102.19222   4016.10412   4087.75270   3945.97253   4039.55122   
139     3910.40394   4127.38434   3991.05757   4117.28390   4009.40688   3973.93681   4157.86984   4021.44989   4067.51413   3958.55805   
140     4020.90166   4280.62807   4148.60186   4118.01990   4062.76290   4163.02869   4306.60657   4011.97274   4126.74406   4154.28004   
141     4322.15517   4229.68679   4253.25894   4237.95351   4254.34749   4167.47827   4142.40529   4068.51283   4079.07698   4269.10130   
142     4144.48615   4198.94092   4174.18636   4430.25224   4216.54664   4223.82780   4219.74331   4074.46156   4389.66304   4239.88031   
143     4295.49140   4472.65938   4332.67064   4276.89903   4212.39934   4384.02471   4250.47703   4245.22505   4325.88506   4344.73860   
144     4385.54164   4405.02301   4313.18404   4477.88542   4403.50844   4263.86932   4364.91357   4371.60466   4439.91499   4386.44806   
145     4386.25829   4310.71412   4326.30545   4433.55742   4550.64276   4439.93918   4382.29563   4393.66654   4478.50356   4412.27337   
146     4531.56744   4351.59320   4511.72485   4449.25027   4503.35602   4460.52799   4636.29273   4577.41231   4536.34125   4402.37827   
147     4532.94853   4549.20305   4456.90471   4434.38903   4596.43258   4460.05206   4509.20078   4537.73698   4358.12790   4563.25568   
148     4494.55925   4456.06143   4593.09038   4526.18882   4528.44636   4645.93740   4528.39512   4486.74282   4495.99346   4612.80078   
149     4619.93823   4624.02475   4457.55043   4608.38868   4600.59923   4510.37863   4520.86946   4740.62812   4657.32384   4748.94349   
150     4507.87666   4732.27356   4766.33175   4636.18525   4522.99877   4702.11909   4654.55133   4672.21064   4716.12656   4519.37735   
151     4689.13631   4803.80359   4783.48474   4613.93992   4640.01808   4537.66381   4657.61049   4770.85170   4780.34566   4709.97129   
152     4640.89898   4810.57191   4853.45523   4799.53822   4778.64016   4709.57634   4739.09627   4728.93249   4806.35451   4620.28627   
153     4698.03605   4938.02168   4759.07306   4696.63617   4803.93027   4815.27564   4916.29795   4770.80364   4871.13174   4678.67025   
154     4805.51610   4851.12916   5009.55687   4832.65713   4991.99640   4864.39681   4873.95517   4738.42800   5000.99974   4877.76614   
155     4749.98307   5093.20753   4922.41356   4870.23282   4956.52930   4846.14850   4899.45085   4916.28363   5020.98436   4915.23804   
156     4854.58400   4821.96173   4932.99823   4954.29535   4906.07810   4849.90676   4952.64222   5031.32404   4981.12952   5081.25900   
157     5060.35503   5125.24663   5120.99636   4951.88499   5100.82594   5069.88865   4956.36071   5018.38772   4908.52185   5000.98796   
158     4984.47000   4963.78354   5068.69173   5053.44622   4997.62278   5059.69669   5083.97690   5016.68861   5069.34547   5176.95442   
159     5147.46112   5194.08646   5196.61381   5007.24576   4971.24722   5087.13589   5103.01375   5190.40515   5279.72436   5010.16854   
160     5376.47594   5239.12511   5152.23547   5082.27531   5242.18801   5048.25420   5130.06121   5142.50301   5071.64652   5016.21798   
161     5275.90947   5168.60171   5284.14151   5278.07768   5007.11693   5290.69291   5381.69655   5239.78413   5357.68938   5376.94036   
162     5327.04036   5266.24626   5276.46823   5339.86585   5199.15323   5196.20580   5331.72973   5397.96432   5277.21909   5411.83455   
163     5345.32323   5297.07870   5291.25157   5339.99852   5303.66136   5200.94727   5404.66682   5520.25753   5248.38282   5271.44531   
164     5207.10554   5436.57592   5460.14932   5411.62731   5404.24401   5449.08224   5385.66927   5391.84140   5452.00609   5352.05070   
165     5421.09772   5457.27988   5260.17875   5474.36359   5456.11974   5332.98257   5515.32797   5539.12051   5454.70147   5232.99540   
166     5489.99424   5590.63998   5667.62294   5613.11327   5568.85277   5521.82959   5345.68488   5406.47148   5681.16656   5559.48340   
167     5484.71891   5455.57388   5410.76583   5676.14463   5758.87450   5504.40888   5491.11752   5549.91112   5394.45645   5536.50986   
168     5465.56928   5616.32532   5611.50747   5532.87168   5603.11314   5718.17269   5760.03858   5607.57597   5671.31625   5516.43577   
169     5678.61193   5691.73461   5768.97458   5794.80974   5661.23923   5671.47791   5765.43223   5524.73728   5456.57328   5668.98095   
170     5575.92769   5687.61676   5739.06452   5559.05704   5875.45849   5809.55408   5700.32566   5671.46412   5738.68662   5705.25236   
171     5869.90680   5830.25056   5840.70718   5852.23049   5754.98175   5807.59498   5724.64729   5705.53936   5934.80269   5664.75074   
172     5943.26059   5808.25656   5801.81118   5829.74919   5772.26657   5894.87078   5884.06192   5707.21982   5983.63678   5886.52143   
173     5867.93288   6053.38468   5932.48356   5773.39516   6058.24136   5798.52537   5853.59379   5829.04085   5698.00078   5818.90905   
174     5833.13426   5876.89032   5929.73245   5999.35653   5942.36593   5868.56875   6087.04556   5988.78717   5954.96149   5915.47780   
175     6127.77582   6145.42535   6074.53988   5770.80131   6000.47290   5920.41359   5991.10514   6026.81817   5865.13016   5759.14447   
176     6110.94040   5925.17414   5972.01712   5952.18703   6045.62426   6130.56797   5917.48859   6117.82780   5964.44297   5985.85542   
177     6162.09573   6226.50440   6071.77112   6052.39917   6082.36821   5985.17672   6002.98299   5962.79222   6244.11476   6070.81264   
178     6110.33008   6268.06873   6266.25761   6324.46242   6154.19813   6233.29033   6094.02685   6072.83718   6177.80464   6026.49030   
179     6164.49179   6061.74345   6049.68355   6060.82590   6160.96644   6115.67169   6149.17016   6052.68497   6094.98701   6078.92964   
180     6193.64838   6356.56484   6170.82122   6065.76455   6381.24457   6241.51475   6220.85236   6362.75957   6146.13736   6202.31853   
181     6219.78804   6109.83020   6332.80917   6377.32310   6151.18439   6348.12355   6401.71499   6194.39588   6333.37388   6171.26636   
182     6308.43295   6235.62848   6360.09554   6490.08242   6106.97447   6183.29029   6317.35789   6304.93410   6301.20811   6322.79027   
183     6247.20123   6313.68508   6520.66454   6365.67532   6306.13781   6475.80932   6472.15645   6393.75125   6343.41277   6232.10305   
184     6524.21848   6273.52806   6324.41138   6415.08118   6533.43943   6519.65331   6490.62655   6549.41020   6508.94852   6433.63314   
185     6450.29904   6397.54703   6601.84358   6729.32204   6550.13688   6472.95478   6548.96520   6421.36807   6408.09741   6678.88653   
186     6487.37984   6691.60238   6495.98772   6460.01504   6651.67743   6530.25568   6504.22177   6523.03317   6707.20816   6711.82843   
187     6501.09609   6503.45295   6537.14152   6547.97888   6623.89908   6506.30019   6633.64583   6579.30418   6640.98302   6495.75711   
188     6693.90449   6615.09068   6555.23455   6603.32802   6583.76473   6550.30192   6625.38265   6727.17561   6701.49087   6643.51626   
189     6580.25192   6669.42331   6520.36658   6696.10362   6667.25324   6843.96358   6649.45359   6797.44704   6839.99902   6574.71807   
190     6760.82813   6570.92607   6617.06105   6641.99015   6646.49701   6704.52846   6665.93376   6786.25522   6704.82802   6644.52271   
191     6982.35366   6784.42651   6756.08365   6700.36911   6786.34278   6856.69792   6851.24017   6566.77837   6821.77700   6688.85102   
192     6722.09883   6781.40547   6732.01008   6864.61311   6853.00664   6750.83720   6976.96136   6966.18300   6760.71340   6901.32009   
193     6918.55005   6984.86339   6758.13294   6880.94572   6720.78613   6796.45939   6731.66231   6906.13287   7034.68975   6822.59867   
194     6997.69438   6951.42259   7025.29326   6881.69359   6870.71090   7129.51991   6920.04548   7057.83802   6840.28249   6872.08862   
195     7085.54032   6894.82604   6949.05242   7006.42964   6870.07718   6996.21359   6780.12674   7075.40308   7116.04182   6935.37958   
196     7065.81078   6983.53839   7016.98103   7077.05715   6988.44586   6982.97543   6943.48373   7056.04576   6862.88007   7092.13691   
197     6943.74892   7085.29745   7081.43380   7102.77095   6964.98876   7008.86077   7127.69529   7207.34891   7046.39212   7139.56181   
198     7262.44698   6997.41945   7022.24689   7129.94342   7056.95474   7275.64345   7168.96952   6990.96411   7006.90804   6968.65200   
199     7047.16080   7178.86755   7256.00140   7019.88098   7082.53010   7031.30610   7260.77985   7011.34480   7218.98920   7205.24543   
200     7147.92781   7050.07849   7071.08392   7066.12043   7297.92517   7264.26992   7109.15131   7288.72456   7053.41080   7092.40774   
201     7116.60585   7290.62732   7101.89987   7346.10574   7111.49794   7175.81030   7301.51621   7221.80946   7181.39452   7341.08227   
202     7194.20460   7320.26996   7278.42535   7421.76429   7179.85215   7128.24047   7162.36561   7213.31286   7463.41878   7345.29578   
203     7471.12120   7448.29710   7348.94168   7328.67602   7394.70348   7094.27816   7380.09732   7331.09477   7431.68673   7140.58273   
204     7153.13789   7352.47218   7217.94471   7399.86080   7512.12236   7409.14562   7340.42462   7294.34469   7442.05313   7316.81763   
205     7285.59941   7510.45931   7506.75584   7334.09112   7515.51894   7507.46670   7436.21498   7609.59376   7379.96183   7454.61822   
206     7472.42072   7465.15844   7519.30473   7513.91402   7512.54526   7430.89295   7550.52832   7591.09219   7441.29774   7487.94224   
207     7417.21649   7449.84763   7387.81099   7505.64006   7483.41354   7383.49590   7338.82434   7616.90894   7555.01776   7560.23484   
208     7338.29562   7521.72445   7631.87185   7428.54551   7419.70411   7455.04671   7319.27159   7478.11805   7570.34875   7566.42369   
209     7537.54684   7512.72848   7660.98318   7552.07167   7646.13592   7385.25565   7401.55737   7583.41451   7481.52812   7596.23780   
210     7617.82541   7704.62650   7555.11188   7726.14909   7444.97024   7527.92795   7508.94659   7505.44987   7413.77015   7471.18634   
211     7563.66907   7581.85461   7630.86715   7705.95986   7556.11668   7713.22974   7681.35206   7555.07772   7552.97129   7552.85569   
212     7651.36141   7750.11785   7790.55491   7486.23175   7743.35429   7779.87035   7817.65203   7619.00727   7541.16420   7774.54557   
213     7706.69109   7737.51645   7598.10391   7902.60265   7641.49813   7794.05486   7802.25276   7815.62153   7668.06662   7632.57447   
214     7655.88625   7886.44891   7704.71391   7674.95076   7763.99154   7754.39303   7822.74200   7573.32767   7831.32680   7807.13548   
215     7703.27932   7633.57379   7720.69563   7828.87507   7809.01826   7858.49213   7751.17708   7908.02769   7702.84323   7793.35645   
216     7874.94150   7910.24851   7667.31565   7830.55688   7899.51974   7861.87461   7830.20010   7661.78563   7772.23517   7830.24355   
217     7915.66231   7735.20580   7745.15266   7752.26605   7942.46505   7994.50800   7653.95423   7849.44614   7771.26589   7974.17591   
218     7707.72542   7753.54125   7812.19241   7882.57432   8038.74435   7750.55553   7803.18061   8042.03130   7875.26707   7771.59487   
219     7784.09390   7978.16538   8030.03207   7991.30094   8131.29920   7855.52159   7863.08132   7821.03078   7932.15585   7838.56716   
220     7910.28573   8102.66402   7908.23579   7850.50451   7956.12340   8146.90085   7854.66758   7931.03388   7860.19704   7837.57887   
221     7791.17198   7958.74088   8171.25735   7984.37323   7871.68549   7907.48478   8162.59893   8017.86473   7935.57162   8069.16791   
222     7985.42708   7933.79029   8046.32993   8206.97033   7891.08573   7871.92121   8105.00245   7951.60663   8101.77324   8009.98670   
223     8151.62819   8043.29683   8202.92835   8124.12045   8132.90698   8118.38581   7970.93127   8190.63307   8084.75768   8235.33784   
224     8138.63024   8159.50635   8067.81675   8123.59330   8181.94003   7889.61984   7927.29574   8306.02635   8199.00487   8162.54019   
225     8136.62028   8177.89337   7998.64250   7940.92630   8250.63486   7946.67097   8253.70018   7926.97402   7909.77246   8216.21226   
226     8063.86836   7987.40370   8153.10102   8215.86638   8101.15240   8270.67520   8143.07392   7986.60140   8060.79255   8189.83388   
227     8170.18959   8086.15392   8167.12781   8044.24617   8041.38933   8030.72859   8236.94329   8311.42474   8130.48680   8219.38104   
228     8292.99131   8373.19713   8110.81067   8170.91435   8258.81391   8227.43089   8130.98744   8256.57552   8097.40748   8335.42391   
229     8307.81485   8300.67437   8357.55882   8253.33319   8346.46601   8249.80055   8288.38316   8127.20977   8306.51152   8249.69125   
230     8047.24469   8271.02739   8173.92577   8261.72456   8411.62425   8202.92077   8197.19912   8420.86686   8128.24770   8383.36734   
231     8434.18793   8366.08067   8271.99943   8327.25420   8385.20572   8104.57912   8246.53789   8214.88591   8108.62306   8164.05355   
232     8375.18816   8407.24650   8347.47266   8360.19691   8280.23592   8321.68383   8340.34038   8438.38778   8298.27886   8361.54845   
233     8239.78544   8228.48021   8476.71681   8451.17327   8510.02055   8315.47226   8126.22204   8225.01357   8433.24811   8415.56568   
234     8414.11785   8423.13665   8313.38923   8463.76045   8398.25011   8212.12158   8494.42974   8482.51585   8474.90923   8413.66324   
235     8518.55707   8343.25595   8392.89412   8492.60494   8277.90751   8247.50287   8376.93159   8509.63439   8549.24312   8423.47281   
236     8474.62216   8232.49656   8273.96253   8373.02748   8354.19501   8408.83176   8444.37941   8336.49953   8476.57968   8212.68750   
237     8469.42295   8579.17777   8445.76179   8218.00785   8501.37290   8417.54840   8565.70636   8215.75493   8295.52537   8333.83048   
238     8410.40603   8280.65157   8533.20330   8533.17586   8462.06206   8552.48430   8240.09710   8369.39430   8348.82635   8520.24787   
239     8522.63535   8384.74973   8544.79502   8568.64428   8508.63431   8606.04716   8506.82148   8486.46061   8316.11567   8292.58307   
240     8296.81924   8552.48861   8523.48643   8370.73751   8622.40936   8479.67047   8399.50725   8315.55214   8525.42091   8584.04966   
241     8568.41646   8564.74364   8444.51205   8612.88968   8645.09990   8389.66803   8578.75494   8345.52302   8314.60564   8426.08052   
242     8455.80240   8591.04912   8320.89960   8432.20711   8506.93264   8355.78886   8493.79990   8516.36262   8435.96739   8613.49565   
243     8589.95107   8398.71663   8450.91686   8653.31184   8662.39502   8652.43169   8565.64450   8626.88818   8607.58239   8624.91484   
244     8406.69317   8653.44059   8350.68400   8460.92833   8663.55958   8447.39361   8478.43171   8373.58933   8505.09572   8627.73765   
245     8447.74483   8404.86212   8409.52857   8637.87473   8537.93175   8346.77725   8389.80113   8450.00147   8402.13079   8414.40724   
246     8501.42749   8524.99505   8571.79488   8405.78071   8634.85100   8547.73349   8518.49621   8668.99124   8559.02977   8481.78886   
247     8424.90153   8371.09586   8688.56513   8465.94311   8574.10178   8690.68970   8474.26674   8499.40881   8624.15297   8509.79034   
248     8448.09619   8456.46985   8571.53584   8597.02919   8391.80374   8473.25906   8529.04590   8458.58786   8716.80524   8458.63462   
249     8510.36890   8609.73028   8649.61960   8378.91206   8468.93516   8717.85275   8416.73099   8475.89165   8625.54602   8642.89960   
250     8515.01826   8592.30782   8597.65965   8586.97681   8421.65466   8612.13056   8581.53086   8721.19080   8653.20607   8469.40666   
251     8449.09232   8619.13271   8477.75009   8731.02965   8642.51020   8406.88286   8749.02623   8648.21504   8549.62043   8508.38659   
252     8415.15765   8552.49201   8740.42981   8742.71149   8557.63834   8419.92801   8576.11524   8497.32029   8483.65367   8529.61026   
253     8467.60841   8749.74443   8750.29493   8648.64439   8673.64511   8500.02336   8600.37972   8520.61519   8632.76821   8581.14270   
254     8483.61823   8427.72797   8520.54660   8629.90444   8651.16542   8729.27463   8685.53450   8459.62806   8716.18984   8588.14585   
255     8634.34331   8695.36354   8638.11914   8690.04335   8485.59922   8580.50182   8613.69661   8592.54730   8575.39993   8622.06743   
256     8664.54822   8593.96349   8646.53794   8429.79652   8528.71454   8699.51972   8766.21926   8494.54162   8647.10942   8724.55454   
257     8442.09652   8698.47820   8482.69270   8651.02091   8434.37898   8607.06406   8519.16091   8613.87284   8605.13518   8767.60664   
258     8427.74508   8510.56041   8755.27908   8735.41868   8512.88856   8731.42446   8579.23818   8460.18190   8538.81961   8582.15311   
259     8456.51740   8681.58181   8670.23750   8451.49754   8586.78604   8691.56302   8438.20095   8713.88669   8566.06463   8423.89254   
260     8426.63777   8528.70444   8652.84494   8650.11431   8422.90725   8513.66284   8510.15576   8724.47278   8512.69855   8438.32425   
261     8544.45158   8486.34444   8432.33176   8508.74530   8622.91154   8460.50630   8574.96136   8697.31848   8483.00073   8571.40455   
262     8440.73948   8742.53266   8558.66993   8658.89489   8749.64818   8445.82537   8521.84048   8680.72350   8528.05890   8665.52877   
263     8536.93593   8602.95331   8677.47616   8681.11959   8751.17697   8518.83480   8671.74422   8610.85806   8754.82796   8754.00906   
264     8579.83073   8700.61853   8516.68831   8632.97654   8551.45925   8630.12508   8440.20832   8708.63493   8569.43825   8553.85877   
265     8753.55203   8707.79008   8621.61190   8720.57828   8591.90364   8501.40989   8757.04648   8697.73389   8731.34251   8650.27350   
266     8644.11357   8425.47663   8593.09518   8473.28920   8691.45297   8416.12693   8394.58454   8458.04888   8492.78552   8597.90708   
267     8693.22418   8594.67463   8534.80616   8680.81160   8697.93829   8572.01348   8678.14883   8610.58026   8624.68671   8536.85544   
268     8460.51180   8509.24277   8403.57112   8657.93546   8537.78343   8386.14895   8645.61676   8510.78646   8576.41371   8462.67098   
269     8391.65226   8693.89330   8415.79978   8631.80699   8474.51166   8458.96712   8673.57551   8564.27244   8518.12072   8452.19275   
270     8675.68196   8396.94909   8472.42835   8628.91529   8678.83382   8428.18924   8536.74664   8484.16450   8572.79080   8460.41800   
271     8677.39507   8564.51582   8470.52007   8389.39225   8461.69589   8462.57143   8537.25698   8358.82838   8384.83659   8520.88055   
272     8568.84383   8539.56740   8481.97134   8370.46425   8519.38751   8641.89230   8511.79860   8355.81954   8522.66857   8469.98533   
273     8496.42146   8456.83808   8616.58148   8297.75485   8350.90835   8461.29630   8355.99970   8425.75156   8594.08111   8635.64681   
274     8582.04807   8420.65437   8521.14007   8372.45857   8564.82748   8520.31847   8552.48629   8455.42473   8434.39750   8510.37130   
275     8652.52663   8377.29830   8629.89220   8376.56335   8403.06936   8351.74590   8363.17353   8363.39060   8374.56341   8592.95997   
276     8430.19731   8455.46291   8274.37366   8323.70972   8510.49100   8624.40813   8503.01425   8336.04356   8305.88518   8455.35248   
277     8314.02650   8571.62739   8325.51549   8627.78269   8523.24660   8440.82244   8492.00013   8303.35007   8505.02950   8357.25172   
278     8425.81755   8292.72730   8294.13326   8275.78951   8597.47658   8513.77662   8320.18312   8266.25422   8322.70004   8432.37389   
279     8525.06567   8347.94215   8430.16417   8253.57762   8249.77428   8496.94680   8453.38324   8384.82731   8509.53941   8552.15735   
280     8390.61606   8432.17955   8304.92480   8326.29952   8409.74420   8352.93386   8397.60810   8334.85737   8484.66448   8261.98654   
281     8420.40905   8463.98241   8395.96814   8183.41315   8211.71623   8362.22030   8358.68608   8401.76888   8401.10874   8380.41361   
282     8384.06457   8472.07295   8396.86930   8403.03650   8329.98747   8329.28422   8188.76321   8327.40265   8353.25127   8275.10192   
283     8168.53738   8461.16696   8185.63782   8446.26135   8361.10933   8287.35194   8155.30698   8332.30930   8214.64532   8429.99806   
284     8335.11075   8382.82025   8411.86335   8234.50545   8192.42699   8228.78436   8369.02735   8315.75586   8440.24408   8322.03725   
285     8056.95357   8271.97018   8418.96892   8221.49532   8081.69742   8309.67008   8214.73615   8206.53446   8151.70031   8370.93002   
286     8221.33662   8215.33082   8126.68347   8271.75904   8285.36876   8287.95717   8321.56011   8237.86554   8404.54884   8412.32865   
287     8314.13111   8283.79041   8254.58847   8271.92013   8152.51088   8079.23186   8264.69898   8229.37688   8111.26575   8071.02427   
288     8040.09308   8307.12347   8134.06228   8381.67846   8204.02224   8300.64715   8018.04378   8200.81708   8257.76033   8240.65991   
289     8152.43602   8098.44660   8094.64125   8288.38665   8097.37483   8055.40944   8025.27378   8016.98570   8116.38327   8214.93527   
290     8297.33090   8192.11565   8325.72912   7994.36370   8004.31663   8140.50368   8223.16499   8087.49921   8073.37908   8281.18104   
291     7894.11100   7968.44141   8003.35507   8063.31712   8172.40584   8123.51994   8208.07333   7985.25705   8202.78010   8058.47085   
292     7945.93429   8080.96467   8149.93741   7997.61775   7979.89808   8100.64274   8066.91855   7902.33756   7984.71494   8152.32778   
293     8107.92890   8054.85445   8119.76169   8020.50569   8065.72931   7892.25861   7946.53790   7953.52948   7944.06024   8149.67190   
294     8054.64235   8107.53005   8158.50635   8040.02365   8133.48513   8202.28409   7921.98027   8143.27020   8075.82057   7885.60705   
295     7928.28851   8141.93757   8106.63797   7933.24002   8121.32922   8025.05239   7996.65115   8075.64494   7928.19858   8053.48680   
296     7804.66725   7878.65454   8011.99523   7934.73554   8018.93310   7924.32877   8096.93353   7822.20328   8148.28349   7796.74318   
297     7833.49194   7928.55104   7975.83248   7742.03060   7971.89314   7914.64917   8055.15841   7980.39984   8070.23398   8057.76441   
298     7821.64723   7927.42897   7946.77107   7820.57628   7899.98197   7964.12465   7739.29747   7992.07109   8076.92215   7688.92715   
299     8026.16791   7886.31586   7887.15583   7883.94325   7796.97694   7909.76408   7894.32840   7942.42305   7999.60911   7942.05629   
300     7664.03895   7954.64095   7741.45660   7832.10011   7781.37595   7650.47106   7755.32455   7906.16099   7812.11146   8008.40251   
301     7697.60405   7855.13613   7790.01263   7664.00899   7952.21748   7786.33534   7655.77559   7586.20949   7870.92831   7709.84383   
302     7714.79637   7706.49479   7850.29046   7963.25513   7633.05059   7806.87787   7877.84124   7771.21281   7840.03779   7761.51225   
303     7699.54205   7711.90503   7863.35317   7712.38621   7831.31427   7907.48906   7809.42490   7704.33166   7829.97381   7767.57557   
304     7727.82742   7604.03727   7521.32012   7686.52509   7671.43306   7623.29889   7764.47677   7606.67510   7675.26602   7599.98474   
305     7763.49190   7654.34342   7551.54339   7524.36153   7485.71179   7662.33691   7498.88986   7481.08893   7669.42845   7563.60332   
306     7785.85147   7524.38241   7752.89775   7741.28471   7604.40968   7743.15815   7720.12690   7712.57339   7667.60208   7435.74280   
307     7493.25921   7681.22559   7405.06962   7409.09800   7732.93125   7516.57380   7445.24803   7537.40872   7491.90228   7762.64829   
308     7684.58389   7577.18359   7451.46481   7304.17947   7654.42371   7406.60361   7583.26447   7568.96388   7416.09058   7532.28290   
309     7368.61548   7579.68396   7568.44373   7627.15280   7362.46582   7638.03677   7443.46571   7349.59319   7366.27439   7555.64118   
310     7535.61723   7668.47388   7298.53617   7480.33857   7361.06103   7551.17086   7425.56753   7495.21562   7484.15706   7271.92239   
311     7385.99913   7219.32922   7298.11986   7423.58389   7445.63110   7410.22022   7352.08940   7279.45953   7347.13627   7509.89668   
312     7515.98101   7316.37420   7489.25562   7221.49844   7351.50205   7201.82794   7443.40024   7451.41575   7388.19871   7422.49641   
313     7319.02241   7337.04759   7397.19811   7190.57184   7255.04361   7382.84668   7307.87967   7292.21446   7394.53399   7361.72264   
314     7284.18017   7291.75122   7196.59933   7257.60257   7314.44963   7418.12612   7201.87264   7189.27806   7218.80924   7231.30982   
315     7232.80841   7347.62949   7220.47552   7126.80356   7308.03160   7263.85994   7280.72967   7191.66954   7224.51901   7303.58852   
316     7266.51686   7246.18953   7224.67204   7255.28391   7120.95427   7047.69409   7185.23367   6990.36540   7362.98340   7128.41241   
317     7290.01615   7213.19690   7190.16217   7145.82258   7073.79879   7185.71131   7059.00559   7157.49317   7128.02025   7089.20304   
318     6983.78582   7205.49088   7235.47722   7056.31873   7052.14627   7087.97709   7087.03476   7068.03410   7016.62268   7132.06273   
319     6938.71941   6955.12735   7145.96619   6991.88408   7110.65475   7131.90360   6990.41270   7072.43681   7170.96051   7127.79705   
320     6999.95110   6959.80495   7029.98187   6890.66007   6852.27888   7008.24263   7062.84996   6980.40093   6994.29712   7073.52791   
321     7068.65026   7164.25591   6857.40823   6892.76791   6953.43228   6948.08004   6935.15552   6872.20758   6874.02790   6965.64793   
322     6976.08755   6852.89143   7018.46943   6830.36456   6932.71474   6963.36701   6825.67975   6943.18056   7036.20766   6995.88425   
323     6921.47375   6894.56803   6834.12341   6973.90621   6859.94779   7072.20479   6673.76426   6868.10760   6977.90891   6875.12974   
324     6894.76381   6788.11465   6936.40145   6905.84388   6723.29557   6708.61061   6991.04499   6859.15372   6771.22734   6845.99521   
325     6743.67189   6847.23461   6863.51139   6814.48526   6751.37734   6819.03470   6698.13727   6582.63165   6616.43263   6640.83246   
326     6914.54611   6882.00880   6724.60464   6668.55865   6665.76042   6922.19167   6719.47271   6819.17859   6774.01459   6757.89164   
327     6729.99262   6616.41119   6671.89103   6713.21772   6607.76372   6698.95773   6795.54403   6770.15985   6781.16761   6564.39973   
328     6575.51437   6772.07741   6687.69030   6704.50968   6641.00711   6537.30034   6607.26525   6819.07568   6628.09700   6784.49040   
329     6458.58387   6609.36208   6566.66744   6748.70545   6606.87962   6428.28282   6512.09146   6703.87453   6684.07136   6464.51015   
330     6389.65130   6474.24376   6574.19168   6729.43474   6366.10270   6582.79414   6340.54153   6700.58020   6735.59709   6359.74486   
331     6461.20468   6529.33886   6289.69908   6615.15902   6485.18233   6668.81538   6500.78383   6564.36785   6522.10883   6476.22447   
332     6415.11856   6239.67512   6404.38589   6402.56731   6254.66075   6346.46815   6438.69724   6351.92777   6627.80786   6590.55588   
333     6357.10746   6466.88735   6564.87714   6427.53088   6293.81726   6412.87307   6551.74797   6468.14837   6398.79104   6444.82849   
334     6391.75784   6533.34332   6349.12988   6383.54788   6255.95280   6327.94754   6439.36039   6334.92410   6249.74907   6327.95562   
335     6206.72353   6432.77924   6329.36228   6208.97020   6206.63486   6245.69205   6473.93378   6158.16027   6213.46310   6391.60550   
336     6342.80473   6070.71691   6238.63155   6160.30241   6188.50040   6103.16922   6203.04939   6252.92360   6246.67365   6340.81780   
337     6124.92845   6230.54499   6187.76159   6221.73691   6201.33217   6253.54556   6256.05710   6059.60018   6299.30980   6126.39283   
338     6072.58860   6163.05678   6039.12068   6281.11079   6008.75034   6153.05482   6213.85477   5960.05557   6068.41621   5982.63393   
339     5971.36395   6153.90964   6112.40403   6024.61548   5949.02222   5927.80658   6155.83528   6152.98467   6050.91300   6148.23840   
340     6063.36639   6080.04656   6131.00869   6085.72593   6093.21345   6065.69434   5930.88759   6156.71665   5906.19484   6013.36177   
341     6013.97009   5981.14698   6065.21501   5983.37091   5958.80089   5776.63658   5953.24691   5987.86467   5928.16008   6078.09290   
342     5790.31600   5920.59340   5935.94521   5860.25557   5943.46963   5879.76428   5924.32455   5893.08667   5997.18616   5992.92536   
343     5948.25335   5772.84451   5871.27752   5883.94289   6036.92452   5805.02726   5735.66338   6024.44662   5801.49215   5733.15419   
344     5702.46988   5780.50040   5863.24731   5765.62730   6019.85382   5786.28339   5946.33337   5967.15078   5997.28635   5904.23965   
345     5797.08674   5708.83966   5806.21335   5736.69209   5826.63525   5857.63498   5799.50077   5872.23088   5882.39826   5713.10450   
346     5723.50102   5815.99569   5642.35281   5716.65639   5521.93261   5696.25284   5759.64444   5674.39264   5749.26880   5612.69519   
347     5742.18660   5850.56443   5597.35699   5682.25052   5731.14130   5654.73186   5593.62427   5792.94328   5761.14414   5701.61314   
348     5565.80259   5667.11266   5655.57068   5576.09157   5572.06757   5669.10153   5419.86315   5731.43370   5455.24409   5599.30717   
349     5615.21840   5484.43344   5516.77351   5538.78876   5490.28218   5458.45369   5621.66877   5599.90771   5617.71755   5585.89430   
350     5483.55138   5528.48723   5576.71060   5574.21614   5555.95046   5651.15816   5490.23677   5617.92240   5520.45249   5410.40469   
351     5291.58481   5618.48997   5363.41672   5405.29828   5607.78397   5468.47354   5384.45520   5572.49066   5343.46876   5307.41386   
352     5389.85451   5495.65518   5481.73778   5310.99924   5451.74192   5357.44392   5452.56546   5498.82294   5345.65790   5448.93244   
353     5205.67781   5216.73898   5402.85966   5450.10014   5381.45385   5406.36524   5217.03130   5405.22596   5224.28867   5432.96800   
354     5260.27981   5151.07966   5346.90725   5370.58200   5308.05496   5262.96762   5331.55867   5292.73317   5344.35939   5411.48908   
355     5211.18384   5128.58618   5161.74534   5157.49141   5170.51534   5257.04717   5181.24494   5243.17843   5172.20649   5281.07328   
356     5288.02424   5117.67551   5277.47269   5179.66745   5105.55858   5251.35476   5376.57292   5229.53457   5265.39945   5205.07468   
357     5184.74614   5179.10763   5169.56096   5138.49731   5300.65430   4949.09460   5155.07441   5030.65478   5122.44735   5051.30574   
358     5015.05156   5029.64793   5143.66697   5003.24814   5209.41997   5111.93926   4944.05741   5150.78404   5049.90500   5120.51453   
359     5021.71513   4963.75603   5072.98644   5035.16114   5119.85574   4973.90790   4918.25077   4918.51329   4957.88919   5049.44278   
360     4973.40405   5166.67346   4970.75368   5060.88782   5030.73850   4931.25938   5002.75579   4867.27856   4870.62658   5005.89768   
361     4895.76214   4808.17231   4805.27262   4877.35816   5027.68068   4848.62829   4914.72823   4962.68198   4898.56957   4959.63700   
362     5011.12115   4940.18470   4809.66225   4810.20229   4839.86724   4921.78502   4882.84539   4876.60327   4786.01550   4793.10111   
363     4681.28307   4720.32592   4722.79108   4856.97223   4846.39640   4928.42206   4818.26412   4857.43758   4867.79255   4859.81108   
364     4754.08644   4867.32589   4876.03140   4659.06060   4879.19006   4707.71414   4825.51055   4782.57733   4688.70774   4858.10171   
365     4709.82656   4743.39913   4832.64997   4669.09151   4726.79356   4642.59609   4739.09139   4638.61598   4597.90856   4740.17194   
366     4594.65949   4669.10198   4713.01646   4553.86543   4531.16639   4713.43567   4739.32691   4736.56134   4526.92144   4537.96807   
367     4674.56885   4609.19139   4631.94611   4674.19054   4728.67342   4690.07719   4516.16056   4452.66363   4776.90929   4636.51784   
368     4638.60655   4457.00315   4562.00308   4515.65645   4494.73985   4570.28837   4565.10826   4446.42511   4612.73432   4361.90766   
369     4501.18260   4485.09829   4391.37489   4593.92675   4487.00199   4464.90479   4422.93566   4413.66632   4362.23180   4557.73597   
370     4320.81829   4463.41006   4331.54036   4510.01588   4596.84239   4512.11701   4483.28386   4392.55525   4535.37677   4595.18332   
371     4381.46232   4314.14418   4411.88229   4437.26692   4437.88512   4455.05429   4305.53805   4376.32965   4382.37049   4372.09104   
372     4281.25093   4376.92228   4228.45453   4430.84746   4369.14644   4269.09817   4282.00441   4441.99405   4408.94212   4404.34066   
373     4375.77485   4258.74635   4361.24541   4379.83021   4282.99770   4268.20452   4365.98301   4254.21244   4345.37631   4271.70972   
374     4236.50177   4230.92512   4176.80658   4156.89084   4133.65184   4290.99643   4121.66262   4344.44112   4218.89716   4252.24140   
375     4240.20882   4140.15869   4210.76772   4274.86965   4135.86711   4315.17337   4071.06610   4241.22007   4161.58842   4191.88091   
376     4235.56757   4068.72484   4126.15765   4064.84492   4081.36426   4114.71659   4082.97105   4127.37172   4217.92342   4174.51706   
377     4115.77151   4066.87741   4100.89632   4214.62110   4163.71908   4027.40007   4052.93695   4010.43231   4152.79611   4127.07443   
378     3985.39465   4044.45682   3924.87388   4037.32522   3919.01817   4020.27228   3934.33980   4038.23970   4014.77226   3966.01630   
379     3992.20754   4090.69240   3953.75747   3980.83854   3951.67019   4023.46112   4144.48025   4010.85718   3949.12643   4006.86376   
380     3885.56129   3801.87038   4074.60515   3938.28615   3932.04160   3777.05273   4023.27200   3926.19321   3850.99275   3931.36670   
381     3783.04848   3932.88666   3902.27077   3865.36487   3982.00237   3907.02737   3687.68739   3907.72183   4063.64936   3913.62665   
382     3831.97934   3776.10344   3828.36333   3874.12732   3942.20218   3959.67458   4009.85700   3960.65603   3839.15745   3856.59821   
383     3891.51558   3694.85358   3761.07263   3841.30456   3759.55972   3824.44204   3663.41310   3874.33022   3670.73442   3776.76421   
384     3714.31875   3872.58056   3755.22813   3668.39788   3631.54543   3831.78283   3730.05717   3840.76870   3822.94443   3750.80836   
385     3706.96296   3683.39272   3604.38070   3804.54050   3721.76611   3691.83166   3573.22056   3692.45418   3667.96437   3589.86716   
386     3538.14006   3619.27067   3573.43421   3542.65791   3632.65780   3613.49095   3715.09388   3761.95336   3631.04164   3635.07862   
387     3549.95269   3540.16172   3614.13709   3622.86618   3664.14915   3548.73263   3599.59448   3608.02261   3625.39926   3646.28188   
388     3598.09905   3435.26791   3508.09443   3472.25365   3573.46499   3531.62113   3542.10251   3651.84652   3567.08015   3666.55433   
389     3522.19189   3439.18462   3534.80928   3399.44029   3422.40281   3420.02291   3457.89267   3394.31602   3352.60910   3527.64337   
390     3470.93897   3481.23446   3359.77088   3358.92496   3418.40697   3486.16358   3471.01888   3329.89718   3452.12354   3349.49649   
391     3333.75545   3438.02490   3457.71005   3425.47190   3351.18056   3404.99901   3513.06051   3458.83633   3534.77928   3392.44318   
392     3255.90325   3387.19901   3362.59814   3446.24989   3343.39596   3408.87208   3262.24824   3405.19978   3246.75328   3331.41947   
393     3270.30165   3160.18738   3395.38199   3259.46924   3321.25363   3407.18261   3339.95550   3334.68819   3254.56225   3338.91202   
394     3145.36455   3249.55643   3333.03511   3223.19066   3307.62441   3380.69656   3302.98437   3210.26048   3144.05655   3266.58884   
395     3227.88663   3254.36145   3306.64164   3276.07706   3145.57758   3167.47841   3173.64775   3296.91055   3228.23001   3205.39453   
396     3165.38277   3075.00598   3291.16398   3163.58884   3104.98486   3229.34395   3176.82323   3108.42277   3111.93753   3167.83495   
397     3122.81121   3066.12326   3146.92681   3209.01418   3097.77751   3083.57125   3059.32167   3110.92245   2949.42386   3165.61911   
398     3071.83598   3059.27835   3175.83547   3038.84963   3058.47317   3043.22070   2996.71326   3127.55304   3147.71345   3134.07364   
399     3098.78895   3072.37293   3085.64903   2988.25555   2990.96953   3154.00867   3022.04706   3056.64224   2994.41405   2991.15633   
400     3114.92824   3057.83552   2992.54056   3002.99585   2927.92647   3075.24450   2923.07372   3015.37759   2912.08736   2927.39706   
401     2944.70900   2967.07390   2936.50328   2885.90841   2931.62896   2978.54000   2891.89805   3051.63696   2935.25115   2988.04358   
402     2899.24718   2868.06791   2818.66858   2994.94649   2956.45315   2867.41866   2872.09031   2891.25192   2830.27838   2881.45843   
403     2785.23879   2773.16946   2786.09423   2821.19782   2843.07381   2977.17460   2741.75875   2916.84266   2990.57693   2913.24822   
404     2877.95512   2708.43636   2875.31270   2896.70981   2797.40229   2805.47039   2832.33286   2824.62243   2849.69042   2744.18812   
405     2705.70974   2658.69309   2805.11759   2820.70792   2860.86562   2810.36157   2721.53541   2731.68985   2853.29564   2711.38775   
406     2822.16590   2681.83850   2785.27781   2692.40822   2657.81655   2790.54627   2772.10450   2740.46929   2767.69427   2788.30261   
407     2738.12687   2792.17491   2732.35567   2606.38627   2669.05833   2692.61776   2577.65314   2729.13064   2726.44529   2703.40915   
408     2791.17323   2632.86494   2697.28624   2738.48192   2676.19592   2590.05780   2590.11838   2644.50269   2580.22676   2697.82360   
409     2645.10670   2551.43584   2597.22252   2656.10822   2566.57540   2593.64487   2613.19502   2543.18159   2584.67620   2628.94660   
410     2632.57156   2567.76147   2504.00135   2571.18920   2566.41760   2625.31510   2549.35261   2614.59961   2569.15716   2639.87646   
411     2484.87476   2504.40895   2539.29695   2518.28548   2644.93593   2554.48587   2583.69746   2548.40059   2558.63057   2653.17445   
412     2584.32034   2436.16071   2550.49957   2545.40053   2564.25328   2445.60583   2589.49648   2500.96904   2517.61821   2602.31077   
413     2493.48385   2496.38361   2511.24431   2453.07890   2357.94974   2335.16919   2534.74238   2404.02915   2350.93706   2460.89052   
414     2373.28307   2455.22655   2411.77293   2437.71517   2324.07345   2309.06871   2447.10621   2439.33843   2373.22794   2499.53591   
415     2443.47454   2406.35113   2336.85371   2414.35688   2356.48089   2352.86680   2333.14329   2373.88846   2312.69535   2487.71992   
416     2422.15377   2347.21724   2410.77412   2428.50455   2336.79169   2361.29978   2279.52592   2301.35581   2299.84458   2392.71593   
417     2380.66979   2337.07058   2229.97241   2250.87814   2308.01338   2299.20068   2224.90377   2337.61079   2255.02452   2261.12476   
418     2237.82150   2304.68634   2271.94603   2229.02142   2219.95079   2196.69371   2315.14104   2168.94749   2253.49152   2318.64425   
419     2258.47575   2211.91999   2182.90540   2239.18773   2296.39107   2236.66610   2276.01558   2211.99653   2343.15136   2215.72123   
420     2176.66317   2203.59701   2130.95396   2101.07557   2198.00491   2215.38966   2227.79296   2214.25379   2262.37944   2166.81189   
421     2242.35283   2143.94615   2195.90512   2118.49521   2100.00640   2128.18655   2195.20142   2176.95962   2181.34323   2161.10691   
422     2055.29043   2134.61281   2163.95064   2067.04072   2081.48721   2076.00159   2075.15109   2167.99037   2166.97645   2108.73340   
423     2026.51477   2129.89603   2061.66482   2074.99825   2015.22485   2048.83144   2100.26662   2133.98188   2195.96149   2076.89429   
424     2004.34054   2100.03477   2001.15669   2114.11917   2096.45039   2105.77613   2087.59686   2114.53829   2033.27108   2008.78866   
425     2004.24555   2089.96543   1976.92123   2062.56513   2066.33997   2021.22601   2058.16057   2025.92414   2020.12390   2050.30684   
426     1918.20603   1987.83902   1955.46461   2034.20599   1968.91426   1917.96610   1925.00257   2027.22011   2042.90539   1909.52680   
427     1920.97563   1983.81927   1966.26338   1950.48156   1986.11937   2003.68187   1915.05727   1978.10619   1972.86642   2007.64582   
428     1866.84598   1946.23656   1958.11451   1863.73369   1961.01455   1872.54523   1873.28256   1889.54153   1873.21231   2025.07932   
429     1792.24935   1966.74222   1846.43558   1918.89968   1838.08758   1887.98407   1889.98367   1941.07838   1862.27345   1893.27110   
430     1926.08011   1857.94052   1780.53815   1909.20464   1937.28517   1927.93504   1878.16307   1884.03731   1895.37458   1911.94865   
431     1744.20524   1820.97619   1861.39167   1762.02037   1797.09337   1806.07689   1835.04214   1840.07474   1799.18508   1870.99829   
432     1820.67916   1731.25099   1764.11238   1865.58753   1823.81551   1776.14230   1835.94523   1770.11069   1834.62398   1836.41898   
433     1832.15645   1700.63229   1810.61434   1821.46137   1729.25579   1800.90663   1823.06768   1732.05249   1750.74140   1791.91098   
434     1710.60908   1803.91207   1734.08135   1762.00175   1830.11681   1667.20114   1708.30780   1828.27581   1708.45517   1722.67169   
435     1707.71005   1735.07608   1668.16317   1692.45553   1707.85567   1657.70672   1642.99460   1683.46216   1635.60131   1682.28823   
436     1677.25660   1642.34120   1562.08054   1723.14024   1650.61074   1573.71123   1664.30163   1678.96834   1640.50889   1703.39067   
437     1602.94263   1643.66384   1668.62046   1650.63702   1603.42790   1648.87576   1658.81870   1599.10036   1633.10381   1689.71452   
438     1657.89125   1597.82506   1645.04795   1656.65654   1631.02767   1669.82967   1663.78868   1567.55856   1668.27214   1599.09477   
439     1526.91263   1591.36315   1505.61439   1628.18737   1551.73803   1573.44704   1511.91942   1553.66985   1613.66170   1592.52818   
440     1489.43348   1488.19339   1606.18421   1585.73436   1493.27237   1560.53450   1535.75430   1573.05199   1507.42790   1533.37157   
441     1553.74089   1504.32577   1566.45167   1544.21509   1538.48545   1451.91678   1582.53999   1520.50033   1578.58774   1503.95084   
442     1495.53671   1546.15264   1534.25516   1490.04918   1502.67782   1563.75925   1459.01703   1485.73057   1451.21724   1489.70451   
443     1473.10368   1453.90366   1492.20603   1517.54795   1496.08305   1488.26348   1476.24749   1448.72919   1479.20671   1512.68597   
444     1454.44890   1394.55838   1422.17682   1479.14105   1486.49487   1418.06696   1518.22529   1485.56661   1418.62119   1425.06677   
445     1467.40300   1385.03044   1404.57666   1374.47749   1391.03140   1320.90696   1453.19435   1457.33655   1434.05218   1404.53891   
446     1315.78220   1357.13606   1407.54542   1397.22020   1368.05417   1435.52637   1444.38466   1383.01972   1408.01588   1395.12757   
447     1364.20624   1337.85724   1379.00167   1363.21979   1350.52921   1367.54425   1387.05718   1351.68809   1326.61406   1358.97317   
448     1361.91059   1328.06189   1347.11289   1361.17276   1263.59240   1359.60177   1270.85204   1369.94608   1353.35862   1318.54170   
449     1244.56050   1302.35746   1336.94298   1245.69295   1325.57287   1282.97133   1354.06169   1316.88983   1285.41107   1291.57266   
450     1286.05146   1246.99329   1280.83539   1260.55376   1239.47482   1286.01236   1301.41883   1328.23646   1308.17622   1328.04656   
451     1270.85866   1278.39284   1257.93034   1305.50749   1295.38195   1272.69660   1217.27269   1308.46920   1293.16220   1241.18007   
452     1227.84481   1232.91970   1233.68988   1295.89082   1297.67535   1290.33247   1221.71582   1218.00622   1223.31356   1239.11822   
453     1196.18153   1170.97170   1168.25322   1243.96130   1271.29873   1282.72762   1216.69306   1242.16701   1250.62655   1211.83426   
454     1213.72868   1151.63571   1239.67023   1233.02951   1241.83587   1240.76744   1232.36809   1221.94120   1140.71119   1187.54769   
455     1105.53019   1161.37566   1169.57024   1196.08650   1223.53594   1142.25796   1151.85363   1193.23417   1244.65339   1226.89117   
456     1152.17417   1158.51227   1120.96702   1142.75166   1106.80242   1142.91047   1152.79256   1134.20438   1174.66878   1157.12898   
457     1149.90427   1128.43156   1192.07148   1070.07734   1117.90122   1086.45383   1081.07758   1090.53679   1122.08023   1127.43248   
458     1137.79022   1075.49739   1086.89033   1107.07928   1057.83291   1077.19739   1123.33258   1106.71132   1119.92822   1069.84877   
459     1078.44632   1067.07891   1117.28244   1080.68203   1091.02699   1129.64953   1146.96106   1056.88048   1091.36224   1062.83765   
460     1018.80952   1116.97722   1101.63888   1106.89296   1055.27510   1090.90433   1029.00593   1053.35735   1055.88508   1069.63207   
461     1080.15205   1062.02765   1082.01049   1034.91571   1043.80695   1062.18361   1064.14812   1049.03327   1037.65083   1096.80611   
462      999.89550   1018.94390   1038.58840   1052.99743   1046.60021   1052.98872    970.16144   1066.54571   1040.12204   1003.76323   
463     1018.90700    978.94951   1057.36846   1006.02147    970.83197    986.67142   1042.33282   1009.11228    961.06638   1048.92171   
464      947.79052    944.01417    983.90294    946.81167    970.64566   1007.84098   1003.51150   1027.17325    981.55725    981.70930   
465      953.10373    951.73875   1024.01450    942.70915    975.52301    933.01824   1000.33667    965.90775    973.09293    953.99891   
466      966.93178   1006.94426    961.29175    927.42757    919.18422    982.46043    950.37044    970.78605    955.84342    918.68417   
467      957.22194    920.98936    962.68406    890.67394    892.86248    886.90440    955.65561    963.24861    946.07638    952.37890   
468      934.72733    893.72104    877.22195    962.85530    898.54396    960.34478    959.29440    908.86356    903.62075    915.14398   
469      909.47873    902.03095    936.75662    892.69640    858.36879    899.37878    890.82226    935.04504    855.58045    878.81531   
470      902.83606    861.70105    863.49472    892.48871    834.29623    883.16288    862.22180    907.73921    886.06625    856.20636   
471      821.76646    864.54623    917.47687    896.54847    889.04377    826.08425    866.62037    859.21304    836.70844    833.39276   
472      831.74594    800.23133    832.75473    835.01442    830.14616    847.87216    844.22092    807.15744    809.26222    820.30439   
473      822.09031    826.49691    854.56550    860.75126    850.58102    861.35873    812.52142    850.42542    825.54256    804.25731   
474      829.55210    840.16628    781.34513    848.51053    769.09027    817.30284    784.55202    791.40503    787.08651    823.66125   
475      827.22660    789.64191    835.40088    798.79053    838.51362    747.99319    753.45200    824.39200    819.58289    765.23224   
476      782.61296    779.73532    756.55455    781.69696    782.81639    747.65178    769.85806    766.78299    797.37892    780.66712   
477      747.88976    761.96548    778.43213    750.76168    770.20125    734.49284    750.80502    785.77243    752.76254    759.31259   
478      738.94920    751.12616    739.97376    759.18207    724.16110    768.03766    726.65117    738.44301    757.28073    790.47103   
479      754.40456    738.53591    710.00771    713.65180    715.95345    758.56743    707.99914    751.57887    770.22924    724.44769   
480      689.69390    727.56357    735.42320    720.77030    761.31843    712.01786    746.68633    711.97756    758.21678    695.88372   
481      714.18517    686.93624    741.77784    686.86625    730.50774    730.55761    713.33236    731.48145    716.59035    726.81615   
482      681.79693    717.91145    677.94469    725.30248    722.21493    721.82217    720.68022    684.80479    742.09260    733.10321   
483      693.66802    663.50512    699.17538    667.10359    667.19162    677.00133    711.55689    689.98177    691.71041    712.84202   
484      709.70281    685.59063    640.80653    694.46834    656.81701    683.13075    663.35674    675.47523    665.69176    648.78224   
485      652.73897    685.60516    633.66988    675.31346    655.21732    645.90466    694.49371    673.39549    610.69505    647.55691   
486      618.72554    661.86507    662.33565    632.69586    675.08466    668.36433    648.03248    651.20009    625.88875    642.69338   
487      647.42076    626.68120    614.82177    615.23967    611.08024    615.58228    636.70209    654.21948    650.22776    600.88992   
488      646.72996    589.02792    584.73761    610.23062    617.90255    630.68949    616.20342    621.49553    600.10398    632.68699   
489      588.60506    618.84766    617.53664    583.54826    627.47086    628.10679    595.64241    593.60321    584.06447    584.56767   
490      624.36922    603.79688    607.38843    587.27775    623.76523    613.25371    604.67618    609.96145    590.02883    589.13956   
491      620.28381    599.25528    588.49140    605.09675    571.58363    584.93791    579.46490    585.23427    560.54559    593.02742   
492      587.05400    592.38823    552.04972    578.76586    561.93376    577.99823    562.93659    570.80422    538.08413    572.06176   
493      577.49465    561.29119    545.74979    568.59789    543.97567    556.88659    541.59222    549.46685    554.83199    536.31495   
494      577.94346    518.16592    554.03453    549.79491    570.45081    547.20737    530.93861    523.16790    548.42263    537.06294   
495      530.57869    544.08177    550.32563    531.20419    543.82875    513.24693    561.08294    501.73887    547.80259    544.76352   
496      532.89314    544.06084    524.73276    528.98586    527.89948    529.49831    534.08886    527.31327    534.50782    517.05782   
497      506.13932    547.06054    526.29670    530.59267    496.52268    501.45692    514.28032    487.66306    512.79597    522.65045   
498      525.11803    515.63686    463.72779    496.54880    492.76010    481.83221    514.91437    495.93688    500.65464    504.16256   
499      524.62769    503.50708    488.64213    514.42472    509.30980    475.79574    523.87868    467.82403    509.71256    490.46070   
500      490.13539    491.01500    478.99134    477.26038    485.61976    478.61812    485.69012    483.43880    455.68936    457.43277   
501      488.47888    487.95838    489.91268    497.74676    488.07298    463.00423    495.39946    480.27764    481.38988    486.13073   
502      501.69053    450.90568    460.17712    456.39706    495.16180    470.26616    450.45733    478.92357    471.29057    445.06269   
503      446.58035    448.48591    455.68853    474.08056    460.02005    442.33500    463.19296    476.28732    465.02600    450.42994   
504      458.47336    438.95906    460.37711    425.45376    438.96558    431.75050    451.61673    448.67004    435.92957    448.64418   
505      431.83008    410.43220    425.97038    440.23605    433.87032    433.40333    433.48136    425.18256    424.25412    461.83326   
506      430.73751    450.84971    416.52943    423.82262    423.35198    452.27133    420.29452    445.95871    443.43612    432.51354   
507      440.27320    439.26013    431.32666    425.13327    400.28184    405.11462    425.18396    408.15618    441.67607    419.67559   
508      421.18161    405.69980    418.19493    400.79741    409.10399    419.07709    416.25557    394.11467    422.21727    421.17991   
509      426.44197    393.61166    403.95523    402.04225    389.79279    417.56102    411.05719    398.97865    400.90538    412.24122   
510      415.37868    411.88591    391.34769    402.14413    388.50771    421.52180    393.96612    382.86850    386.10498    394.93401   
511      392.43165    400.56733    384.61395    394.44245    380.04052    405.71163    406.30056    383.40476    370.73731    388.96462   
512      398.42248    364.34240    388.53216    394.16354    360.91946    386.00885    396.30513    377.48777    369.06093    396.33962   
